File: example/soliddist/SDa_2.txt
Time	Temperature	Weight	Weight	Heat Flow
min	°C	%	mg	mW
0.003		99.9942	10.8796
0.037		99.9900	10.8792
0.070	25.66	100.0020	10.8805	-22.696
0.103	25.98	100.0015	10.8804	-22.535
0.137	26.29	99.9970	10.8799	-22.387
0.170	26.60	99.9906	10.8792	-22.249
0.203	26.90	99.9824	10.8783	-22.124
0.237	27.19	99.9726	10.8773	-22.008
0.270	27.47	99.9610	10.8760	-21.900
0.303	27.75	99.9479	10.8746	-21.801
0.337	28.02	99.9332	10.8730	-21.708
0.370	28.28	99.9169	10.8712	-21.618
0.403	28.54	99.8991	10.8693	-21.536
0.437	28.79	99.8800	10.8672	-21.460
0.470	29.03	99.8597	10.8650	-21.389
0.503	29.27	99.8383	10.8627	-21.320
0.537	29.50	99.8160	10.8602	-21.252
0.570	29.72	99.7927	10.8577	-21.190
0.603	29.94	99.7686	10.8551	-21.130
0.637	30.15	99.7438	10.8524	-21.070
0.670	30.36	99.7184	10.8496	-21.012
0.703	30.56	99.6924	10.8468	-20.956
0.737	30.76	99.6659	10.8439	-20.900
0.770	30.96	99.6389	10.8410	-20.845
0.803	31.15	99.6117	10.8380	-20.790
0.837	31.35	99.5841	10.8350	-20.738
0.870	31.53	99.5563	10.8320	-20.687
0.903	31.72	99.5282	10.8289	-20.636
0.937	31.91	99.4999	10.8258	-20.586
0.970	32.10	99.4716	10.8228	-20.537
1.003	32.30	99.4432	10.8197	-20.487
1.037	32.49	99.4149	10.8166	-20.440
1.070	32.69	99.3864	10.8135	-20.394
1.103	32.89	99.3580	10.8104	-20.345
1.137	33.10	99.3297	10.8073	-20.292
1.170	33.31	99.3013	10.8042	-20.238
1.203	33.52	99.2730	10.8011	-20.184
1.237	33.74	99.2446	10.7981	-20.128
1.270	33.96	99.2161	10.7950	-20.071
1.303	34.19	99.1877	10.7919	-20.013
1.337	34.42	99.1592	10.7888	-19.950
1.370	34.66	99.1305	10.7856	-19.884
1.403	34.90	99.1019	10.7825	-19.815
1.437	35.15	99.0732	10.7794	-19.745
1.470	35.40	99.0445	10.7763	-19.673
1.503	35.65	99.0156	10.7731	-19.598
1.537	35.92	98.9866	10.7700	-19.518
1.570	36.18	98.9575	10.7668	-19.439
1.603	36.45	98.9283	10.7636	-19.357
1.637	36.73	98.8989	10.7604	-19.271
1.670	37.01	98.8694	10.7572	-19.183
1.703	37.29	98.8397	10.7540	-19.094
1.737	37.58	98.8100	10.7508	-19.002
1.770	37.88	98.7801	10.7475	-18.908
1.803	38.18	98.7501	10.7442	-18.811
1.837	38.48	98.7199	10.7410	-18.714
1.870	38.79	98.6896	10.7377	-18.615
1.903	39.10	98.6592	10.7344	-18.513
1.937	39.41	98.6286	10.7310	-18.412
1.970	39.73	98.5979	10.7277	-18.307
2.003	40.05	98.5670	10.7243	-18.200
2.037	40.38	98.5360	10.7210	-18.093
2.070	40.71	98.5048	10.7176	-17.987
2.103	41.04	98.4736	10.7142	-17.880
2.137	41.37	98.4422	10.7107	-17.766
2.170	41.71	98.4106	10.7073	-17.651
2.203	42.05	98.3789	10.7039	-17.538
2.237	42.39	98.3470	10.7004	-17.424
2.270	42.74	98.3150	10.6969	-17.308
2.303	43.09	98.2829	10.6934	-17.191
2.337	43.43	98.2506	10.6899	-17.074
2.370	43.79	98.2182	10.6864	-16.955
2.403	44.14	98.1856	10.6828	-16.835
2.437	44.49	98.1529	10.6793	-16.711
2.470	44.85	98.1201	10.6757	-16.587
2.503	45.20	98.0872	10.6721	-16.464
2.537	45.56	98.0541	10.6685	-16.339
2.570	45.92	98.0210	10.6649	-16.212
2.603	46.28	97.9879	10.6613	-16.082
2.637	46.64	97.9547	10.6577	-15.954
2.670	47.01	97.9214	10.6541	-15.824
2.703	47.37	97.8880	10.6504	-15.692
2.737	47.73	97.8545	10.6468	-15.560
2.770	48.09	97.8210	10.6432	-15.428
2.803	48.46	97.7874	10.6395	-15.295
2.837	48.82	97.7537	10.6358	-15.160
2.870	49.19	97.7199	10.6322	-15.024
2.903	49.55	97.6862	10.6285	-14.888
2.937	49.91	97.6524	10.6248	-14.753
2.970	50.28	97.6187	10.6211	-14.615
3.003	50.64	97.5849	10.6175	-14.476
3.037	51.01	97.5511	10.6138	-14.336
3.070	51.37	97.5174	10.6101	-14.197
3.103	51.74	97.4837	10.6065	-14.057
3.137	52.10	97.4501	10.6028	-13.918
3.170	52.46	97.4166	10.5992	-13.777
3.203	52.82	97.3832	10.5955	-13.638
3.237	53.19	97.3498	10.5919	-13.496
3.270	53.55	97.3164	10.5883	-13.351
3.303	53.91	97.2832	10.5847	-13.208
3.337	54.27	97.2501	10.5810	-13.066
3.370	54.63	97.2171	10.5775	-12.922
3.403	54.99	97.1841	10.5739	-12.776
3.437	55.35	97.1513	10.5703	-12.630
3.470	55.71	97.1186	10.5667	-12.485
3.503	56.07	97.0861	10.5632	-12.340
3.537	56.42	97.0538	10.5597	-12.196
3.570	56.78	97.0217	10.5562	-12.052
3.603	57.13	96.9898	10.5527	-11.906
3.637	57.49	96.9581	10.5493	-11.759
3.670	57.84	96.9266	10.5458	-11.614
3.703	58.20	96.8953	10.5424	-11.466
3.737	58.55	96.8643	10.5391	-11.320
3.770	58.90	96.8334	10.5357	-11.175
3.803	59.25	96.8027	10.5324	-11.032
3.837	59.61	96.7723	10.5291	-10.886
3.870	59.96	96.7421	10.5258	-10.740
3.903	60.31	96.7122	10.5225	-10.592
3.937	60.66	96.6825	10.5193	-10.444
3.970	61.01	96.6530	10.5161	-10.296
4.003	61.36	96.6239	10.5129	-10.148
4.037	61.70	96.5950	10.5098	-10.000
4.070	62.05	96.5663	10.5067	-9.856
4.103	62.40	96.5379	10.5036	-9.712
4.137	62.75	96.5098	10.5005	-9.567
4.170	63.09	96.4819	10.4975	-9.422
4.203	63.44	96.4543	10.4945	-9.277
4.237	63.78	96.4271	10.4915	-9.131
4.270	64.13	96.4001	10.4886	-8.985
4.303	64.47	96.3733	10.4857	-8.840
4.337	64.82	96.3469	10.4828	-8.698
4.370	65.16	96.3207	10.4799	-8.554
4.403	65.51	96.2948	10.4771	-8.409
4.437	65.85	96.2691	10.4743	-8.267
4.470	66.19	96.2437	10.4716	-8.125
4.503	66.54	96.2187	10.4688	-7.980
4.537	66.88	96.1939	10.4661	-7.837
4.570	67.22	96.1694	10.4635	-7.694
4.603	67.57	96.1452	10.4608	-7.553
4.637	67.91	96.1214	10.4582	-7.412
4.670	68.25	96.0978	10.4557	-7.269
4.703	68.60	96.0744	10.4531	-7.130
4.737	68.94	96.0514	10.4506	-6.990
4.770	69.28	96.0286	10.4481	-6.853
4.803	69.62	96.0061	10.4457	-6.717
4.837	69.96	95.9838	10.4433	-6.582
4.870	70.31	95.9618	10.4409	-6.443
4.903	70.65	95.9400	10.4385	-6.303
4.937	70.99	95.9185	10.4362	-6.166
4.970	71.33	95.8973	10.4339	-6.028
5.003	71.67	95.8764	10.4316	-5.891
5.037	72.02	95.8558	10.4293	-5.754
5.070	72.36	95.8355	10.4271	-5.619
5.103	72.70	95.8153	10.4249	-5.486
5.137	73.04	95.7955	10.4228	-5.354
5.170	73.39	95.7759	10.4206	-5.224
5.203	73.73	95.7566	10.4185	-5.088
5.237	74.07	95.7375	10.4165	-4.954
5.270	74.42	95.7188	10.4144	-4.822
5.303	74.76	95.7002	10.4124	-4.693
5.337	75.10	95.6819	10.4104	-4.564
5.370	75.44	95.6638	10.4085	-4.433
5.403	75.79	95.6460	10.4065	-4.303
5.437	76.13	95.6284	10.4046	-4.175
5.470	76.47	95.6111	10.4027	-4.047
5.503	76.82	95.5940	10.4009	-3.921
5.537	77.16	95.5771	10.3990	-3.794
5.570	77.51	95.5605	10.3972	-3.667
5.603	77.85	95.5442	10.3954	-3.541
5.637	78.20	95.5280	10.3937	-3.417
5.670	78.54	95.5121	10.3919	-3.292
5.703	78.89	95.4964	10.3902	-3.169
5.737	79.23	95.4808	10.3885	-3.046
5.770	79.57	95.4656	10.3869	-2.924
5.803	79.92	95.4505	10.3852	-2.802
5.837	80.27	95.4357	10.3836	-2.682
5.870	80.61	95.4210	10.3820	-2.559
5.903	80.96	95.4066	10.3805	-2.439
5.937	81.30	95.3924	10.3789	-2.320
5.970	81.65	95.3785	10.3774	-2.200
6.003	81.99	95.3647	10.3759	-2.082
6.037	82.34	95.3512	10.3744	-1.963
6.070	82.69	95.3378	10.3730	-1.845
6.103	83.03	95.3246	10.3716	-1.729
6.137	83.38	95.3117	10.3701	-1.615
6.170	83.73	95.2989	10.3688	-1.500
6.203	84.07	95.2863	10.3674	-1.385
6.237	84.42	95.2739	10.3660	-1.269
6.270	84.77	95.2617	10.3647	-1.151
6.303	85.12	95.2497	10.3634	-1.035
6.337	85.46	95.2379	10.3621	-0.922
6.370	85.81	95.2263	10.3609	-0.809
6.403	86.16	95.2149	10.3596	-0.697
6.437	86.50	95.2037	10.3584	-0.587
6.470	86.85	95.1926	10.3572	-0.476
6.503	87.20	95.1817	10.3560	-0.364
6.537	87.55	95.1709	10.3548	-0.254
6.570	87.90	95.1603	10.3537	-0.144
6.603	88.24	95.1500	10.3525	-0.037
6.637	88.59	95.1397	10.3514	0.069
6.670	88.94	95.1297	10.3503	0.176
6.703	89.29	95.1198	10.3493	0.285
6.737	89.63	95.1100	10.3482	0.392
6.770	89.98	95.1005	10.3472	0.498
6.803	90.33	95.0911	10.3461	0.603
6.837	90.68	95.0819	10.3451	0.709
6.870	91.03	95.0729	10.3442	0.814
6.903	91.37	95.0641	10.3432	0.920
6.937	91.72	95.0554	10.3423	1.025
6.970	92.07	95.0468	10.3413	1.127
7.003	92.42	95.0385	10.3404	1.227
7.037	92.77	95.0302	10.3395	1.327
7.070	93.11	95.0222	10.3386	1.429
7.103	93.46	95.0142	10.3378	1.530
7.137	93.81	95.0064	10.3369	1.632
7.170	94.16	94.9987	10.3361	1.731
7.203	94.50	94.9912	10.3353	1.831
7.237	94.85	94.9839	10.3345	1.928
7.270	95.20	94.9766	10.3337	2.026
7.303	95.55	94.9694	10.3329	2.123
7.337	95.89	94.9625	10.3321	2.221
7.370	96.24	94.9557	10.3314	2.317
7.403	96.59	94.9490	10.3307	2.412
7.437	96.93	94.9424	10.3300	2.506
7.470	97.28	94.9359	10.3293	2.602
7.503	97.63	94.9296	10.3286	2.698
7.537	97.98	94.9233	10.3279	2.792
7.570	98.32	94.9173	10.3272	2.885
7.603	98.67	94.9112	10.3266	2.978
7.637	99.02	94.9054	10.3259	3.072
7.670	99.36	94.8997	10.3253	3.164
7.703	99.71	94.8941	10.3247	3.255
7.737	100.06	94.8886	10.3241	3.345
7.770	100.40	94.8833	10.3235	3.436
7.803	100.75	94.8781	10.3230	3.527
7.837	101.10	94.8729	10.3224	3.616
7.870	101.44	94.8679	10.3219	3.705
7.903	101.79	94.8629	10.3213	3.794
7.937	102.13	94.8581	10.3208	3.882
7.970	102.48	94.8534	10.3203	3.968
8.003	102.82	94.8488	10.3198	4.051
8.037	103.17	94.8443	10.3193	4.136
8.070	103.51	94.8400	10.3188	4.222
8.103	103.86	94.8358	10.3184	4.306
8.137	104.21	94.8316	10.3179	4.391
8.170	104.55	94.8276	10.3175	4.478
8.203	104.90	94.8236	10.3170	4.562
8.237	105.24	94.8197	10.3166	4.645
8.270	105.59	94.8159	10.3162	4.726
8.303	105.93	94.8121	10.3158	4.806
8.337	106.28	94.8085	10.3154	4.886
8.345	106.36	94.8076	10.3153	4.906

[step]
Isothermal 30.0 min
Time	Temperature	Weight	Weight	Heat Flow
min	°C	%	mg	mW
8.353	106.45	94.8067	10.3152	4.926
8.462	107.57	94.7954	10.3140	5.194
8.570	108.65	94.7850	10.3128	5.487
8.678	109.66	94.7751	10.3118	5.827
8.787	110.57	94.7659	10.3108	6.198
8.895	111.37	94.7573	10.3098	6.595
9.003	112.06	94.7490	10.3089	7.010
9.112	112.61	94.7417	10.3081	7.427
9.220	113.02	94.7349	10.3074	7.842
9.328	113.31	94.7284	10.3067	8.215
9.437	113.49	94.7225	10.3060	8.548
9.545	113.58	94.7171	10.3054	8.832
9.653	113.58	94.7122	10.3049	9.068
9.762	113.52	94.7077	10.3044	9.258
9.870	113.39	94.7035	10.3040	9.406
9.978	113.22	94.6997	10.3036	9.498
10.087	113.05	94.6965	10.3032	9.537
10.195	112.87	94.6936	10.3029	9.551
10.303	112.69	94.6912	10.3026	9.553
10.412	112.52	94.6893	10.3024	9.529
10.520	112.37	94.6875	10.3022	9.483
10.628	112.24	94.6860	10.3021	9.423
10.737	112.13	94.6847	10.3019	9.360
10.845	112.04	94.6836	10.3018	9.298
10.953	111.97	94.6827	10.3017	9.236
11.062	111.94	94.6819	10.3016	9.177
11.170	111.92	94.6811	10.3015	9.131
11.278	111.92	94.6805	10.3015	9.094
11.387	111.94	94.6797	10.3014	9.053
11.495	111.98	94.6790	10.3013	9.027
11.603	112.04	94.6785	10.3013	9.006
11.712	112.10	94.6784	10.3012	8.988
11.820	112.18	94.6779	10.3012	8.980
11.928	112.26	94.6774	10.3011	8.978
12.037	112.34	94.6770	10.3011	8.980
12.145	112.42	94.6764	10.3010	8.990
12.253	112.50	94.6760	10.3010	9.008
12.362	112.58	94.6757	10.3009	9.025
12.470	112.66	94.6753	10.3009	9.046
12.578	112.73	94.6750	10.3009	9.071
12.687	112.79	94.6746	10.3008	9.098
12.795	112.85	94.6742	10.3008	9.125
12.903	112.90	94.6739	10.3007	9.152
13.012	112.95	94.6735	10.3007	9.173
13.120	112.99	94.6734	10.3007	9.198
13.228	113.02	94.6733	10.3007	9.220
13.337	113.04	94.6730	10.3006	9.241
13.445	113.06	94.6726	10.3006	9.259
13.553	113.08	94.6724	10.3006	9.273
13.662	113.09	94.6721	10.3006	9.285
13.770	113.10	94.6719	10.3005	9.295
13.878	113.10	94.6717	10.3005	9.304
13.987	113.10	94.6715	10.3005	9.313
14.095	113.10	94.6713	10.3005	9.318
14.203	113.10	94.6711	10.3004	9.321
14.312	113.10	94.6708	10.3004	9.323
14.420	113.10	94.6706	10.3004	9.323
14.528	113.10	94.6704	10.3004	9.323
14.637	113.10	94.6703	10.3004	9.323
14.745	113.10	94.6704	10.3004	9.320
14.853	113.10	94.6703	10.3004	9.316
14.962	113.10	94.6703	10.3004	9.313
15.070	113.11	94.6702	10.3003	9.308
15.178	113.11	94.6700	10.3003	9.305
15.287	113.11	94.6699	10.3003	9.301
15.395	113.12	94.6699	10.3003	9.298
15.503	113.13	94.6698	10.3003	9.295
15.612	113.13	94.6697	10.3003	9.293
15.720	113.14	94.6696	10.3003	9.290
15.828	113.15	94.6696	10.3003	9.287
15.937	113.16	94.6694	10.3003	9.285
16.045	113.17	94.6694	10.3003	9.284
16.153	113.17	94.6695	10.3003	9.282
16.262	113.18	94.6694	10.3003	9.281
16.370	113.19	94.6695	10.3003	9.280
16.478	113.20	94.6695	10.3003	9.280
16.587	113.20	94.6695	10.3003	9.279
16.695	113.21	94.6694	10.3003	9.278
16.803	113.22	94.6694	10.3003	9.279
16.912	113.22	94.6693	10.3003	9.278
17.020	113.23	94.6691	10.3002	9.281
17.128	113.23	94.6691	10.3002	9.279
17.237	113.23	94.6691	10.3002	9.277
17.345	113.24	94.6691	10.3002	9.275
17.453	113.24	94.6689	10.3002	9.275
17.562	113.24	94.6689	10.3002	9.273
17.670	113.24	94.6691	10.3002	9.273
17.778	113.24	94.6690	10.3002	9.272
17.887	113.25	94.6692	10.3002	9.272
17.995	113.25	94.6691	10.3002	9.272
18.103	113.25	94.6692	10.3002	9.271
18.212	113.25	94.6692	10.3002	9.272
18.320	113.25	94.6692	10.3002	9.274
18.428	113.25	94.6691	10.3002	9.272
18.537	113.25	94.6693	10.3002	9.271
18.645	113.25	94.6693	10.3002	9.270
18.753	113.25	94.6692	10.3002	9.268
18.862	113.25	94.6692	10.3002	9.267
18.970	113.25	94.6691	10.3002	9.264
19.078	113.25	94.6691	10.3002	9.264
19.187	113.25	94.6692	10.3002	9.263
19.295	113.25	94.6692	10.3002	9.259
19.403	113.25	94.6693	10.3002	9.256
19.512	113.25	94.6693	10.3002	9.254
19.620	113.26	94.6693	10.3002	9.253
19.728	113.26	94.6693	10.3002	9.252
19.837	113.26	94.6693	10.3002	9.250
19.945	113.26	94.6694	10.3003	9.248
20.053	113.26	94.6694	10.3003	9.245
20.162	113.26	94.6695	10.3003	9.242
20.270	113.26	94.6695	10.3003	9.241
20.378	113.26	94.6694	10.3003	9.241
20.487	113.26	94.6694	10.3003	9.240
20.595	113.26	94.6694	10.3003	9.239
20.703	113.26	94.6695	10.3003	9.237
20.812	113.26	94.6696	10.3003	9.235
20.920	113.26	94.6695	10.3003	9.233
21.028	113.26	94.6694	10.3003	9.231
21.137	113.26	94.6694	10.3003	9.230
21.245	113.26	94.6694	10.3003	9.228
21.353	113.26	94.6694	10.3003	9.227
21.462	113.26	94.6695	10.3003	9.225
21.570	113.26	94.6695	10.3003	9.223
21.678	113.26	94.6695	10.3003	9.222
21.787	113.26	94.6696	10.3003	9.221
21.895	113.26	94.6697	10.3003	9.219
22.003	113.26	94.6697	10.3003	9.218
22.112	113.26	94.6695	10.3003	9.216
22.220	113.26	94.6696	10.3003	9.214
22.328	113.26	94.6696	10.3003	9.211
22.437	113.26	94.6696	10.3003	9.211
22.545	113.26	94.6696	10.3003	9.209
22.653	113.26	94.6697	10.3003	9.206
22.762	113.26	94.6697	10.3003	9.203
22.870	113.26	94.6697	10.3003	9.200
22.978	113.26	94.6698	10.3003	9.197
23.087	113.26	94.6699	10.3003	9.195
23.195	113.26	94.6699	10.3003	9.192
23.303	113.26	94.6699	10.3003	9.191
23.412	113.26	94.6698	10.3003	9.190
23.520	113.26	94.6698	10.3003	9.189
23.628	113.26	94.6697	10.3003	9.187
23.737	113.26	94.6697	10.3003	9.185
23.845	113.26	94.6697	10.3003	9.184
23.953	113.26	94.6697	10.3003	9.182
24.062	113.26	94.6696	10.3003	9.180
24.170	113.26	94.6696	10.3003	9.177
24.278	113.25	94.6698	10.3003	9.176
24.387	113.25	94.6698	10.3003	9.173
24.495	113.25	94.6699	10.3003	9.170
24.603	113.25	94.6699	10.3003	9.168
24.712	113.25	94.6700	10.3003	9.167
24.820	113.25	94.6700	10.3003	9.163
24.928	113.25	94.6701	10.3003	9.161
25.037	113.25	94.6701	10.3003	9.160
25.145	113.25	94.6702	10.3004	9.159
25.253	113.25	94.6702	10.3003	9.156
25.362	113.25	94.6703	10.3004	9.153
25.470	113.25	94.6702	10.3004	9.152
25.578	113.25	94.6702	10.3004	9.148
25.687	113.25	94.6702	10.3003	9.147
25.795	113.25	94.6702	10.3003	9.146
25.903	113.25	94.6703	10.3004	9.144
26.012	113.25	94.6703	10.3004	9.143
26.120	113.25	94.6703	10.3004	9.141
26.228	113.25	94.6703	10.3004	9.140
26.337	113.25	94.6704	10.3004	9.138
26.445	113.25	94.6704	10.3004	9.136
26.553	113.25	94.6704	10.3004	9.133
26.662	113.25	94.6706	10.3004	9.130
26.770	113.25	94.6706	10.3004	9.129
26.878	113.25	94.6707	10.3004	9.125
26.987	113.24	94.6707	10.3004	9.124
27.095	113.25	94.6708	10.3004	9.122
27.203	113.25	94.6708	10.3004	9.117
27.312	113.24	94.6710	10.3004	9.116
27.420	113.24	94.6710	10.3004	9.114
27.528	113.24	94.6710	10.3004	9.111
27.637	113.24	94.6710	10.3004	9.108
27.745	113.24	94.6711	10.3004	9.105
27.853	113.24	94.6713	10.3005	9.101
27.962	113.24	94.6713	10.3005	9.098
28.070	113.24	94.6714	10.3005	9.095
28.178	113.24	94.6714	10.3005	9.094
28.287	113.24	94.6711	10.3004	9.091
28.395	113.24	94.6709	10.3004	9.090
28.503	113.24	94.6712	10.3005	9.087
28.612	113.24	94.6713	10.3005	9.086
28.720	113.24	94.6713	10.3005	9.086
28.828	113.24	94.6713	10.3005	9.084
28.937	113.24	94.6714	10.3005	9.081
29.045	113.24	94.6715	10.3005	9.079
29.153	113.24	94.6714	10.3005	9.076
29.262	113.24	94.6715	10.3005	9.072
29.370	113.24	94.6716	10.3005	9.070
29.478	113.23	94.6717	10.3005	9.067
29.587	113.23	94.6718	10.3005	9.064
29.695	113.23	94.6718	10.3005	9.063
29.803	113.23	94.6719	10.3005	9.060
29.912	113.23	94.6721	10.3005	9.056
30.020	113.23	94.6720	10.3005	9.057
30.128	113.23	94.6721	10.3006	9.056
30.237	113.23	94.6721	10.3006	9.055
30.345	113.23	94.6719	10.3005	9.052
30.453	113.23	94.6718	10.3005	9.050
30.562	113.23	94.6719	10.3005	9.048
30.670	113.23	94.6719	10.3005	9.048
30.778	113.23	94.6719	10.3005	9.046
30.887	113.23	94.6718	10.3005	9.043
30.995	113.23	94.6719	10.3005	9.040
31.103	113.23	94.6720	10.3005	9.037
31.212	113.23	94.6721	10.3006	9.032
31.320	113.23	94.6721	10.3006	9.031
31.428	113.23	94.6722	10.3006	9.028
31.537	113.23	94.6723	10.3006	9.026
31.645	113.23	94.6723	10.3006	9.024
31.753	113.23	94.6724	10.3006	9.021
31.862	113.23	94.6726	10.3006	9.019
31.970	113.23	94.6726	10.3006	9.015
32.078	113.23	94.6725	10.3006	9.013
32.187	113.23	94.6725	10.3006	9.012
32.295	113.23	94.6725	10.3006	9.011
32.403	113.23	94.6725	10.3006	9.010
32.512	113.23	94.6726	10.3006	9.010
32.620	113.23	94.6727	10.3006	9.009
32.728	113.22	94.6728	10.3006	9.007
32.837	113.23	94.6729	10.3006	9.005
32.945	113.22	94.6730	10.3006	9.000
33.053	113.22	94.6729	10.3006	8.996
33.162	113.22	94.6729	10.3006	8.995
33.270	113.22	94.6729	10.3006	8.994
[...]
203.870	947.96	-0.3238	-0.0352	21.719
203.987	948.06	-0.3239	-0.0352	22.897
204.103	948.16	-0.3240	-0.0352	23.963
204.220	948.24	-0.3240	-0.0352	24.979
204.337	948.32	-0.3241	-0.0353	25.899
204.453	948.40	-0.3244	-0.0353	26.746
204.570	948.47	-0.3247	-0.0353	27.523
204.687	948.54	-0.3250	-0.0354	28.217
204.803	948.61	-0.3252	-0.0354	28.862
204.920	948.67	-0.3254	-0.0354	29.472
205.037	948.73	-0.3256	-0.0354	30.026
205.153	948.78	-0.3258	-0.0354	30.510
205.270	948.83	-0.3260	-0.0355	30.991
205.387	948.88	-0.3261	-0.0355	31.404
205.503	948.92	-0.3264	-0.0355	31.783
205.620	948.97	-0.3266	-0.0355	32.135
205.737	949.01	-0.3269	-0.0356	32.457
205.853	949.05	-0.3272	-0.0356	32.740
205.970	949.08	-0.3275	-0.0356	33.009
206.087	949.11	-0.3278	-0.0357	33.246
206.203	949.15	-0.3281	-0.0357	33.450
206.320	949.18	-0.3284	-0.0357	33.653
206.437	949.21	-0.3286	-0.0358	33.841
206.553	949.23	-0.3289	-0.0358	34.004
206.670	949.26	-0.3292	-0.0358	34.145
206.787	949.28	-0.3293	-0.0358	34.284
206.903	949.30	-0.3296	-0.0359	34.408
207.020	949.33	-0.3298	-0.0359	34.498
207.137	949.35	-0.3301	-0.0359	34.588
207.253	949.36	-0.3303	-0.0359	34.674
207.370	949.38	-0.3305	-0.0360	34.746
207.487	949.40	-0.3308	-0.0360	34.816
207.603	949.42	-0.3315	-0.0361	34.892
207.720	949.43	-0.3319	-0.0361	34.943
207.837	949.45	-0.3323	-0.0362	34.982
207.953	949.46	-0.3328	-0.0362	35.026
208.070	949.47	-0.3331	-0.0362	35.066
208.187	949.49	-0.3335	-0.0363	35.102
208.303	949.50	-0.3337	-0.0363	35.134
208.420	949.51	-0.3341	-0.0363	35.163
208.537	949.52	-0.3343	-0.0364	35.198
208.653	949.53	-0.3348	-0.0364	35.214
208.770	949.54	-0.3351	-0.0365	35.222
208.887	949.55	-0.3355	-0.0365	35.226
209.003	949.55	-0.3357	-0.0365	35.225
209.120	949.56	-0.3359	-0.0365	35.225
209.237	949.57	-0.3363	-0.0366	35.233
209.353	949.58	-0.3366	-0.0366	35.236
209.470	949.58	-0.3369	-0.0367	35.234
209.587	949.59	-0.3372	-0.0367	35.234
209.703	949.60	-0.3377	-0.0367	35.229
209.820	949.60	-0.3380	-0.0368	35.228
209.937	949.61	-0.3383	-0.0368	35.223
210.053	949.61	-0.3387	-0.0368	35.218
210.170	949.62	-0.3389	-0.0369	35.214
210.287	949.62	-0.3391	-0.0369	35.190
210.403	949.63	-0.3392	-0.0369	35.168
210.520	949.63	-0.3393	-0.0369	35.149
210.637	949.63	-0.3395	-0.0369	35.134
210.753	949.64	-0.3398	-0.0370	35.124
210.870	949.64	-0.3401	-0.0370	35.101
210.987	949.64	-0.3405	-0.0370	35.071
211.103	949.64	-0.3409	-0.0371	35.046
211.220	949.65	-0.3412	-0.0371	35.026
211.337	949.65	-0.3414	-0.0371	35.009
211.453	949.65	-0.3417	-0.0372	34.997
211.570	949.65	-0.3421	-0.0372	34.988
211.687	949.66	-0.3425	-0.0373	34.984
211.803	949.66	-0.3429	-0.0373	34.977
211.920	949.66	-0.3432	-0.0373	34.963
212.037	949.66	-0.3435	-0.0374	34.942
212.153	949.66	-0.3439	-0.0374	34.923
212.270	949.66	-0.3441	-0.0374	34.907
212.387	949.67	-0.3445	-0.0375	34.883
212.503	949.67	-0.3450	-0.0375	34.874
212.620	949.67	-0.3453	-0.0376	34.860
212.737	949.67	-0.3456	-0.0376	34.848
212.853	949.67	-0.3458	-0.0376	34.833
212.970	949.67	-0.3461	-0.0377	34.817
213.087	949.67	-0.3463	-0.0377	34.799
213.203	949.67	-0.3466	-0.0377	34.789
213.320	949.67	-0.3468	-0.0377	34.774
213.437	949.67	-0.3471	-0.0378	34.764
213.553	949.67	-0.3474	-0.0378	34.752
213.670	949.68	-0.3477	-0.0378	34.734
213.787	949.68	-0.3482	-0.0379	34.709
213.903	949.67	-0.3486	-0.0379	34.696
214.020	949.68	-0.3489	-0.0380	34.685
214.137	949.68	-0.3491	-0.0380	34.675
214.253	949.68	-0.3495	-0.0380	34.664
214.370	949.68	-0.3498	-0.0381	34.648
214.487	949.68	-0.3501	-0.0381	34.644
214.603	949.68	-0.3505	-0.0381	34.639
214.720	949.68	-0.3510	-0.0382	34.631
214.837	949.68	-0.3513	-0.0382	34.622
214.953	949.68	-0.3516	-0.0383	34.616
215.070	949.68	-0.3519	-0.0383	34.609
215.187	949.68	-0.3522	-0.0383	34.601
215.303	949.68	-0.3526	-0.0384	34.598
215.420	949.68	-0.3531	-0.0384	34.597
215.537	949.68	-0.3535	-0.0385	34.596
215.653	949.68	-0.3538	-0.0385	34.590
215.770	949.68	-0.3541	-0.0385	34.595
215.887	949.68	-0.3544	-0.0386	34.593
216.003	949.68	-0.3548	-0.0386	34.591
216.120	949.68	-0.3551	-0.0386	34.571
216.237	949.68	-0.3553	-0.0387	34.556
216.353	949.68	-0.3557	-0.0387	34.552
216.470	949.68	-0.3560	-0.0387	34.541
216.587	949.68	-0.3563	-0.0388	34.534
216.703	949.68	-0.3567	-0.0388	34.536
216.820	949.68	-0.3571	-0.0389	34.528
216.937	949.68	-0.3574	-0.0389	34.519
217.053	949.68	-0.3576	-0.0389	34.522
217.170	949.68	-0.3579	-0.0389	34.527
217.287	949.68	-0.3582	-0.0390	34.531
217.403	949.68	-0.3585	-0.0390	34.532
217.520	949.68	-0.3589	-0.0390	34.530
217.637	949.68	-0.3593	-0.0391	34.541
217.753	949.68	-0.3597	-0.0391	34.550
217.870	949.68	-0.3601	-0.0392	34.555
217.987	949.68	-0.3604	-0.0392	34.555
218.103	949.68	-0.3607	-0.0392	34.554
218.220	949.67	-0.3611	-0.0393	34.562
218.337	949.68	-0.3614	-0.0393	34.566
218.453	949.68	-0.3618	-0.0394	34.567
218.570	949.68	-0.3621	-0.0394	34.569
218.687	949.68	-0.3624	-0.0394	34.561
218.803	949.68	-0.3628	-0.0395	34.552
218.920	949.68	-0.3631	-0.0395	34.549
219.037	949.68	-0.3635	-0.0395	34.550
219.153	949.68	-0.3638	-0.0396	34.550
219.270	949.67	-0.3641	-0.0396	34.540
219.387	949.67	-0.3646	-0.0397	34.542
219.503	949.67	-0.3650	-0.0397	34.538
219.620	949.67	-0.3653	-0.0397	34.540
219.737	949.67	-0.3657	-0.0398	34.542
219.853	949.67	-0.3660	-0.0398	34.543
219.970	949.67	-0.3664	-0.0399	34.545
220.087	949.67	-0.3666	-0.0399	34.549
220.203	949.67	-0.3670	-0.0399	34.551
220.320	949.67	-0.3673	-0.0400	34.552
220.437	949.67	-0.3676	-0.0400	34.558
220.553	949.67	-0.3678	-0.0400	34.564
220.670	949.67	-0.3681	-0.0401	34.564
220.787	949.67	-0.3685	-0.0401	34.573
220.903	949.67	-0.3689	-0.0401	34.573
221.020	949.67	-0.3692	-0.0402	34.564
221.137	949.67	-0.3696	-0.0402	34.569
221.253	949.67	-0.3700	-0.0403	34.565
221.370	949.67	-0.3703	-0.0403	34.570
221.487	949.67	-0.3707	-0.0403	34.590
221.603	949.67	-0.3709	-0.0404	34.594
221.720	949.67	-0.3714	-0.0404	34.587
221.837	949.67	-0.3719	-0.0405	34.585
221.953	949.67	-0.3724	-0.0405	34.602
222.070	949.67	-0.3728	-0.0406	34.613
222.187	949.67	-0.3732	-0.0406	34.630
222.303	949.67	-0.3736	-0.0407	34.631
222.420	949.67	-0.3740	-0.0407	34.634
222.537	949.67	-0.3744	-0.0407	34.640
222.653	949.67	-0.3746	-0.0408	34.644
222.770	949.67	-0.3748	-0.0408	34.645
222.887	949.67	-0.3751	-0.0408	34.652
223.003	949.67	-0.3755	-0.0409	34.655
223.120	949.67	-0.3758	-0.0409	34.655
223.237	949.67	-0.3763	-0.0409	34.664
223.353	949.67	-0.3767	-0.0410	34.669
223.470	949.67	-0.3772	-0.0410	34.683
223.587	949.67	-0.3774	-0.0411	34.690
223.703	949.67	-0.3777	-0.0411	34.695
223.820	949.67	-0.3781	-0.0411	34.694
223.937	949.67	-0.3783	-0.0412	34.699
224.053	949.67	-0.3785	-0.0412	34.718
224.170	949.67	-0.3788	-0.0412	34.728
224.287	949.67	-0.3790	-0.0412	34.724
224.403	949.67	-0.3793	-0.0413	34.725
224.520	949.67	-0.3797	-0.0413	34.727
224.637	949.67	-0.3801	-0.0414	34.734
224.753	949.67	-0.3804	-0.0414	34.740
224.870	949.67	-0.3809	-0.0414	34.751
224.987	949.67	-0.3813	-0.0415	34.759
225.103	949.67	-0.3818	-0.0415	34.777
225.220	949.67	-0.3822	-0.0416	34.783
225.337	949.67	-0.3826	-0.0416	34.781
225.453	949.67	-0.3830	-0.0417	34.792
225.570	949.67	-0.3833	-0.0417	34.801
225.687	949.67	-0.3837	-0.0417	34.803
225.803	949.67	-0.3841	-0.0418	34.809
225.920	949.67	-0.3844	-0.0418	34.824
226.037	949.67	-0.3848	-0.0419	34.847
226.153	949.67	-0.3850	-0.0419	34.853
226.270	949.67	-0.3852	-0.0419	34.854
226.387	949.67	-0.3856	-0.0420	34.855
226.503	949.67	-0.3859	-0.0420	34.858
226.620	949.67	-0.3862	-0.0420	34.859
226.737	949.67	-0.3866	-0.0421	34.876
226.853	949.67	-0.3869	-0.0421	34.879
226.970	949.67	-0.3872	-0.0421	34.877
227.087	949.67	-0.3876	-0.0422	34.875
227.203	949.67	-0.3879	-0.0422	34.877
227.320	949.67	-0.3882	-0.0422	34.885
227.437	949.67	-0.3888	-0.0423	34.895
227.553	949.67	-0.3893	-0.0424	34.899
227.670	949.67	-0.3897	-0.0424	34.899
227.787	949.67	-0.3901	-0.0424	34.913
227.903	949.67	-0.3905	-0.0425	34.915
228.020	949.67	-0.3908	-0.0425	34.914
228.137	949.67	-0.3911	-0.0426	34.916
228.253	949.67	-0.3915	-0.0426	34.925
228.370	949.67	-0.3918	-0.0426	34.935
228.487	949.67	-0.3923	-0.0427	34.949
228.603	949.67	-0.3927	-0.0427	34.954
228.720	949.67	-0.3931	-0.0428	34.958
228.837	949.67	-0.3934	-0.0428	34.964
228.953	949.67	-0.3938	-0.0428	34.973
229.070	949.67	-0.3943	-0.0429	34.977
229.187	949.67	-0.3948	-0.0430	34.980
229.303	949.67	-0.3950	-0.0430	34.986
229.420	949.67	-0.3953	-0.0430	34.992
229.537	949.67	-0.3956	-0.0430	35.005
229.653	949.67	-0.3959	-0.0431	35.029
229.770	949.67	-0.3962	-0.0431	35.046
229.887	949.67	-0.3966	-0.0432	35.048
230.003	949.67	-0.3970	-0.0432	35.054
230.120	949.67	-0.3973	-0.0432	35.057
230.237		-0.3975	-0.0432
230.245		-0.3975	-0.0432