File: example/soliddist/SDb_3.txt
Time	Temperature	Weight	Weight	Heat Flow
min	°C	%	mg	mW
0.003		100.0625	4.1708
0.037		100.2292	4.1777
0.070	24.83	100.2697	4.1794	-23.976
0.103	25.17	100.2812	4.1799	-23.793
0.137	25.50	100.2847	4.1801	-23.620
0.170	25.83	100.2816	4.1799	-23.457
0.203	26.15	100.2726	4.1795	-23.301
0.237	26.46	100.2581	4.1789	-23.154
0.270	26.76	100.2386	4.1781	-23.013
0.303	27.06	100.2142	4.1771	-22.877
0.337	27.35	100.1849	4.1759	-22.747
0.370	27.63	100.1513	4.1745	-22.622
0.403	27.91	100.1138	4.1729	-22.499
0.437	28.18	100.0730	4.1712	-22.380
0.470	28.44	100.0292	4.1694	-22.265
0.503	28.70	99.9828	4.1675	-22.153
0.537	28.95	99.9342	4.1654	-22.044
0.570	29.19	99.8838	4.1633	-21.935
0.603	29.43	99.8320	4.1612	-21.827
0.637	29.66	99.7792	4.1590	-21.720
0.670	29.89	99.7256	4.1567	-21.615
0.703	30.11	99.6714	4.1545	-21.510
0.737	30.32	99.6168	4.1522	-21.408
0.770	30.53	99.5620	4.1499	-21.306
0.803	30.74	99.5070	4.1476	-21.204
0.837	30.95	99.4521	4.1453	-21.101
0.870	31.15	99.3975	4.1431	-21.001
0.903	31.34	99.3433	4.1408	-20.901
0.937	31.54	99.2895	4.1386	-20.802
0.970	31.74	99.2362	4.1363	-20.702
1.003	31.94	99.1835	4.1342	-20.603
1.037	32.14	99.1317	4.1320	-20.506
1.070	32.34	99.0809	4.1299	-20.410
1.103	32.54	99.0309	4.1278	-20.315
1.137	32.75	98.9818	4.1257	-20.220
1.170	32.96	98.9336	4.1237	-20.125
1.203	33.17	98.8864	4.1218	-20.027
1.237	33.39	98.8403	4.1198	-19.930
1.270	33.61	98.7951	4.1180	-19.832
1.303	33.84	98.7505	4.1161	-19.733
1.337	34.06	98.7067	4.1143	-19.631
1.370	34.30	98.6636	4.1125	-19.526
1.403	34.54	98.6212	4.1107	-19.420
1.437	34.78	98.5794	4.1090	-19.313
1.470	35.03	98.5381	4.1073	-19.201
1.503	35.28	98.4975	4.1056	-19.086
1.537	35.54	98.4574	4.1039	-18.967
1.570	35.80	98.4178	4.1022	-18.846
1.603	36.07	98.3786	4.1006	-18.722
1.637	36.34	98.3398	4.0990	-18.597
1.670	36.62	98.3013	4.0974	-18.470
1.703	36.90	98.2631	4.0958	-18.344
1.737	37.18	98.2252	4.0942	-18.213
1.770	37.48	98.1877	4.0926	-18.081
1.803	37.77	98.1504	4.0911	-17.947
1.837	38.07	98.1134	4.0895	-17.810
1.870	38.37	98.0766	4.0880	-17.672
1.903	38.68	98.0401	4.0865	-17.532
1.937	38.99	98.0039	4.0850	-17.391
1.970	39.31	97.9681	4.0835	-17.249
2.003	39.63	97.9324	4.0820	-17.103
2.037	39.96	97.8969	4.0805	-16.954
2.070	40.28	97.8616	4.0791	-16.808
2.103	40.61	97.8266	4.0776	-16.660
2.137	40.95	97.7918	4.0761	-16.508
2.170	41.28	97.7572	4.0747	-16.354
2.203	41.62	97.7228	4.0733	-16.201
2.237	41.97	97.6887	4.0718	-16.049
2.270	42.31	97.6548	4.0704	-15.894
2.303	42.66	97.6211	4.0690	-15.737
2.337	43.01	97.5875	4.0676	-15.577
2.370	43.36	97.5541	4.0662	-15.417
2.403	43.72	97.5210	4.0649	-15.257
2.437	44.08	97.4882	4.0635	-15.096
2.470	44.43	97.4556	4.0621	-14.935
2.503	44.79	97.4231	4.0608	-14.772
2.537	45.15	97.3910	4.0594	-14.607
2.570	45.52	97.3590	4.0581	-14.438
2.603	45.88	97.3273	4.0568	-14.270
2.637	46.25	97.2959	4.0555	-14.104
2.670	46.61	97.2646	4.0542	-13.939
2.703	46.98	97.2335	4.0529	-13.772
2.737	47.34	97.2027	4.0516	-13.603
2.770	47.71	97.1722	4.0503	-13.434
2.803	48.08	97.1420	4.0491	-13.267
2.837	48.45	97.1121	4.0478	-13.099
2.870	48.82	97.0823	4.0466	-12.928
2.903	49.19	97.0526	4.0453	-12.754
2.937	49.56	97.0232	4.0441	-12.582
2.970	49.93	96.9943	4.0429	-12.410
3.003	50.29	96.9658	4.0417	-12.238
3.037	50.66	96.9374	4.0405	-12.069
3.070	51.03	96.9093	4.0394	-11.898
3.103	51.40	96.8815	4.0382	-11.727
3.137	51.77	96.8539	4.0370	-11.556
3.170	52.14	96.8267	4.0359	-11.386
3.203	52.50	96.7999	4.0348	-11.212
3.237	52.87	96.7733	4.0337	-11.041
3.270	53.24	96.7472	4.0326	-10.872
3.303	53.60	96.7215	4.0315	-10.705
3.337	53.97	96.6960	4.0305	-10.536
3.370	54.33	96.6707	4.0294	-10.367
3.403	54.70	96.6458	4.0284	-10.199
3.437	55.06	96.6213	4.0274	-10.031
3.470	55.42	96.5972	4.0264	-9.863
3.503	55.79	96.5735	4.0254	-9.696
3.537	56.15	96.5502	4.0244	-9.530
3.570	56.51	96.5272	4.0234	-9.366
3.603	56.87	96.5046	4.0225	-9.203
3.637	57.23	96.4822	4.0216	-9.040
3.670	57.58	96.4602	4.0206	-8.876
3.703	57.94	96.4386	4.0197	-8.713
3.737	58.30	96.4174	4.0189	-8.550
3.770	58.65	96.3967	4.0180	-8.390
3.803	59.01	96.3764	4.0171	-8.230
3.837	59.36	96.3564	4.0163	-8.070
3.870	59.71	96.3367	4.0155	-7.911
3.903	60.07	96.3174	4.0147	-7.756
3.937	60.42	96.2984	4.0139	-7.601
3.970	60.77	96.2798	4.0131	-7.446
4.003	61.12	96.2615	4.0124	-7.291
4.037	61.47	96.2436	4.0116	-7.139
4.070	61.82	96.2259	4.0109	-6.986
4.103	62.17	96.2087	4.0102	-6.834
4.137	62.52	96.1917	4.0095	-6.686
4.170	62.86	96.1751	4.0088	-6.538
4.203	63.21	96.1587	4.0081	-6.392
4.237	63.56	96.1426	4.0074	-6.247
4.270	63.90	96.1270	4.0068	-6.101
4.303	64.25	96.1118	4.0061	-5.955
4.337	64.59	96.0969	4.0055	-5.809
4.370	64.94	96.0822	4.0049	-5.666
4.403	65.28	96.0676	4.0043	-5.526
4.437	65.62	96.0534	4.0037	-5.388
4.470	65.97	96.0395	4.0031	-5.250
4.503	66.31	96.0258	4.0025	-5.112
4.537	66.65	96.0124	4.0020	-4.977
4.570	67.00	95.9993	4.0014	-4.842
4.603	67.34	95.9865	4.0009	-4.706
4.637	67.68	95.9738	4.0004	-4.571
4.670	68.02	95.9614	3.9998	-4.438
4.703	68.36	95.9492	3.9993	-4.307
4.737	68.70	95.9374	3.9988	-4.176
4.770	69.04	95.9258	3.9984	-4.044
4.803	69.38	95.9144	3.9979	-3.914
4.837	69.72	95.9034	3.9974	-3.789
4.870	70.06	95.8926	3.9970	-3.663
4.903	70.40	95.8820	3.9965	-3.537
4.937	70.74	95.8716	3.9961	-3.412
4.970	71.08	95.8613	3.9957	-3.290
5.003	71.42	95.8513	3.9953	-3.168
5.037	71.76	95.8416	3.9949	-3.044
5.070	72.10	95.8320	3.9945	-2.922
5.103	72.44	95.8228	3.9941	-2.803
5.137	72.78	95.8137	3.9937	-2.687
5.170	73.12	95.8049	3.9933	-2.566
5.203	73.46	95.7962	3.9930	-2.447
5.237	73.80	95.7878	3.9926	-2.330
5.270	74.14	95.7797	3.9923	-2.213
5.303	74.48	95.7718	3.9919	-2.098
5.337	74.82	95.7641	3.9916	-1.982
5.370	75.16	95.7566	3.9913	-1.868
5.403	75.50	95.7493	3.9910	-1.754
5.437	75.84	95.7422	3.9907	-1.642
5.470	76.18	95.7352	3.9904	-1.530
5.503	76.52	95.7285	3.9901	-1.419
5.537	76.87	95.7219	3.9899	-1.307
5.570	77.21	95.7155	3.9896	-1.198
5.603	77.55	95.7093	3.9893	-1.090
5.637	77.89	95.7032	3.9891	-0.983
5.670	78.23	95.6972	3.9888	-0.877
5.703	78.57	95.6913	3.9886	-0.770
5.737	78.91	95.6856	3.9884	-0.664
5.770	79.25	95.6801	3.9881	-0.560
5.803	79.60	95.6748	3.9879	-0.456
5.837	79.94	95.6696	3.9877	-0.352
5.870	80.28	95.6646	3.9875	-0.248
5.903	80.62	95.6596	3.9873	-0.146
5.937	80.97	95.6548	3.9871	-0.044
5.970	81.31	95.6500	3.9869	0.057
6.003	81.65	95.6454	3.9867	0.159
6.037	82.00	95.6410	3.9865	0.261
6.070	82.34	95.6366	3.9863	0.361
6.103	82.68	95.6324	3.9861	0.459
6.137	83.03	95.6283	3.9860	0.555
6.170	83.37	95.6243	3.9858	0.652
6.203	83.71	95.6204	3.9856	0.751
6.237	84.06	95.6165	3.9855	0.847
6.270	84.40	95.6127	3.9853	0.942
6.303	84.75	95.6091	3.9852	1.036
6.337	85.09	95.6056	3.9850	1.130
6.370	85.43	95.6021	3.9849	1.225
6.403	85.78	95.5988	3.9847	1.320
6.437	86.12	95.5956	3.9846	1.413
6.470	86.47	95.5926	3.9845	1.506
6.503	86.81	95.5897	3.9844	1.596
6.537	87.16	95.5869	3.9842	1.688
6.570	87.50	95.5840	3.9841	1.780
6.603	87.85	95.5812	3.9840	1.870
6.637	88.19	95.5784	3.9839	1.958
6.670	88.54	95.5756	3.9838	2.046
6.703	88.88	95.5730	3.9837	2.137
6.737	89.23	95.5703	3.9835	2.226
6.770	89.57	95.5677	3.9834	2.312
6.803	89.92	95.5653	3.9833	2.399
6.837	90.26	95.5630	3.9832	2.486
6.870	90.61	95.5607	3.9831	2.574
6.903	90.95	95.5585	3.9831	2.663
6.937	91.30	95.5563	3.9830	2.747
6.970	91.64	95.5540	3.9829	2.829
7.003	91.99	95.5518	3.9828	2.912
7.037	92.34	95.5498	3.9827	2.999
7.070	92.68	95.5479	3.9826	3.084
7.103	93.03	95.5461	3.9825	3.168
7.137	93.37	95.5442	3.9825	3.250
7.170	93.72	95.5424	3.9824	3.332
7.203	94.06	95.5407	3.9823	3.415
7.237	94.41	95.5390	3.9822	3.497
7.270	94.75	95.5373	3.9822	3.576
7.303	95.10	95.5356	3.9821	3.656
7.337	95.44	95.5341	3.9820	3.734
7.370	95.79	95.5326	3.9820	3.816
7.403	96.13	95.5310	3.9819	3.895
7.437	96.48	95.5295	3.9818	3.973
7.470	96.82	95.5280	3.9818	4.051
7.503	97.17	95.5267	3.9817	4.130
7.537	97.51	95.5252	3.9817	4.209
7.570	97.86	95.5237	3.9816	4.286
7.603	98.20	95.5222	3.9815	4.361
7.637	98.55	95.5208	3.9815	4.437
7.670	98.89	95.5194	3.9814	4.514
7.703	99.23	95.5181	3.9814	4.590
7.737	99.58	95.5168	3.9813	4.666
7.770	99.92	95.5155	3.9813	4.741
7.803	100.27	95.5143	3.9812	4.814
7.837	100.61	95.5132	3.9812	4.884
7.870	100.95	95.5121	3.9811	4.958
7.903	101.30	95.5110	3.9811	5.034
7.937	101.64	95.5099	3.9810	5.107
7.970	101.99	95.5087	3.9810	5.179
8.003	102.33	95.5076	3.9809	5.248
8.037	102.67	95.5066	3.9809	5.319
8.070	103.02	95.5056	3.9809	5.392
8.103	103.36	95.5045	3.9808	5.466
8.137	103.71	95.5033	3.9808	5.536
8.170	104.05	95.5021	3.9807	5.605
8.203	104.39	95.5008	3.9807	5.672
8.237	104.73	95.4997	3.9806	5.741
8.270	105.08	95.4987	3.9806	5.809
8.303	105.42	95.4977	3.9805	5.879
8.337	105.77	95.4967	3.9805	5.946
8.370	106.11	95.4957	3.9804	6.013
8.403	106.45	95.4947	3.9804	6.081
8.412	106.54	95.4945	3.9804	6.098

[step]
Isothermal 30.0 min
Time	Temperature	Weight	Weight	Heat Flow
min	°C	%	mg	mW
8.420	106.62	95.4942	3.9804	6.115
8.528	107.73	95.4912	3.9802	6.339
8.637	108.81	95.4883	3.9801	6.593
8.745	109.81	95.4847	3.9800	6.887
8.853	110.72	95.4805	3.9798	7.221
8.962	111.51	95.4762	3.9796	7.579
9.070	112.19	95.4717	3.9794	7.946
9.178	112.73	95.4675	3.9793	8.316
9.287	113.14	95.4629	3.9791	8.684
9.395	113.43	95.4580	3.9789	9.014
9.503	113.60	95.4529	3.9787	9.305
9.612	113.68	95.4480	3.9785	9.539
9.720	113.68	95.4429	3.9782	9.735
9.828	113.61	95.4374	3.9780	9.883
9.937	113.48	95.4324	3.9778	9.991
10.045	113.31	95.4268	3.9776	10.043
10.153	113.13	95.4223	3.9774	10.062
10.262	112.94	95.4187	3.9772	10.052
10.370	112.76	95.4156	3.9771	10.006
10.478	112.58	95.4128	3.9770	9.941
10.587	112.42	95.4104	3.9769	9.859
10.695	112.29	95.4081	3.9768	9.776
10.803	112.17	95.4061	3.9767	9.693
10.912	112.08	95.4047	3.9766	9.613
11.020	112.01	95.4034	3.9766	9.533
11.128	111.97	95.4023	3.9765	9.469
11.237	111.95	95.4010	3.9765	9.403
11.345	111.95	95.4001	3.9765	9.346
11.453	111.97	95.3990	3.9764	9.302
11.562	112.02	95.3980	3.9764	9.269
11.670	112.07	95.3968	3.9763	9.242
11.778	112.13	95.3960	3.9763	9.223
11.887	112.21	95.3946	3.9762	9.212
11.995	112.28	95.3938	3.9762	9.206
12.103	112.37	95.3931	3.9762	9.206
12.212	112.45	95.3919	3.9761	9.210
12.320	112.53	95.3903	3.9760	9.221
12.428	112.61	95.3895	3.9760	9.240
12.537	112.69	95.3883	3.9760	9.259
12.645	112.76	95.3875	3.9759	9.281
12.753	112.82	95.3861	3.9759	9.306
12.862	112.88	95.3849	3.9758	9.332
12.970	112.94	95.3838	3.9758	9.360
13.078	112.98	95.3827	3.9757	9.380
13.187	113.01	95.3816	3.9757	9.401
13.295	113.05	95.3801	3.9756	9.418
13.403	113.07	95.3790	3.9756	9.441
13.512	113.09	95.3779	3.9755	9.457
13.620	113.11	95.3768	3.9755	9.469
13.728	113.12	95.3756	3.9754	9.481
13.837	113.13	95.3743	3.9754	9.489
13.945	113.13	95.3734	3.9753	9.496
14.053	113.13	95.3725	3.9753	9.499
14.162	113.13	95.3715	3.9753	9.502
14.270	113.13	95.3707	3.9752	9.502
14.378	113.13	95.3697	3.9752	9.503
14.487	113.13	95.3689	3.9752	9.502
14.595	113.13	95.3680	3.9751	9.500
14.703	113.13	95.3670	3.9751	9.497
14.812	113.13	95.3654	3.9750	9.495
14.920	113.13	95.3648	3.9750	9.491
15.028	113.13	95.3641	3.9750	9.486
15.137	113.13	95.3634	3.9749	9.480
15.245	113.13	95.3629	3.9749	9.473
15.353	113.14	95.3625	3.9749	9.466
15.462	113.15	95.3619	3.9749	9.461
15.570	113.15	95.3615	3.9748	9.457
15.678	113.16	95.3608	3.9748	9.453
15.787	113.17	95.3600	3.9748	9.449
15.895	113.17	95.3593	3.9748	9.447
16.003	113.18	95.3587	3.9747	9.446
16.112	113.19	95.3578	3.9747	9.445
16.220	113.20	95.3569	3.9747	9.441
16.328	113.20	95.3562	3.9746	9.438
16.437	113.21	95.3554	3.9746	9.438
16.545	113.22	95.3551	3.9746	9.437
16.653	113.23	95.3544	3.9746	9.436
16.762	113.23	95.3540	3.9745	9.436
16.870	113.24	95.3533	3.9745	9.435
16.978	113.24	95.3525	3.9745	9.435
17.087	113.25	95.3518	3.9744	9.435
17.195	113.25	95.3511	3.9744	9.434
17.303	113.25	95.3502	3.9744	9.434
17.412	113.26	95.3497	3.9744	9.433
17.520	113.26	95.3494	3.9743	9.432
17.628	113.26	95.3489	3.9743	9.431
17.737	113.26	95.3481	3.9743	9.432
17.845	113.27	95.3474	3.9743	9.429
17.953	113.27	95.3470	3.9742	9.428
18.062	113.27	95.3465	3.9742	9.426
18.170	113.27	95.3462	3.9742	9.425
18.278	113.27	95.3455	3.9742	9.424
18.387	113.27	95.3451	3.9742	9.422
18.495	113.27	95.3446	3.9741	9.420
18.603	113.27	95.3442	3.9741	9.420
18.712	113.27	95.3436	3.9741	9.418
18.820	113.27	95.3432	3.9741	9.418
18.928	113.27	95.3426	3.9741	9.416
19.037	113.27	95.3419	3.9740	9.414
19.145	113.28	95.3413	3.9740	9.410
19.253	113.27	95.3410	3.9740	9.407
19.362	113.28	95.3406	3.9740	9.404
19.470	113.28	95.3401	3.9740	9.400
19.578	113.28	95.3396	3.9739	9.398
19.687	113.28	95.3389	3.9739	9.395
19.795	113.28	95.3387	3.9739	9.392
19.903	113.28	95.3382	3.9739	9.389
20.012	113.28	95.3378	3.9739	9.388
20.120	113.28	95.3373	3.9738	9.383
20.228	113.28	95.3365	3.9738	9.381
20.337	113.28	95.3362	3.9738	9.381
20.445	113.28	95.3358	3.9738	9.379
20.553	113.28	95.3352	3.9737	9.378
20.662	113.28	95.3346	3.9737	9.376
20.770	113.28	95.3343	3.9737	9.373
20.878	113.28	95.3336	3.9737	9.370
20.987	113.28	95.3328	3.9736	9.369
21.095	113.28	95.3324	3.9736	9.367
21.203	113.28	95.3319	3.9736	9.365
21.312	113.28	95.3315	3.9736	9.362
21.420	113.28	95.3310	3.9736	9.360
21.528	113.28	95.3309	3.9736	9.357
21.637	113.28	95.3306	3.9736	9.355
21.745	113.28	95.3305	3.9736	9.353
21.853	113.28	95.3300	3.9735	9.352
21.962	113.28	95.3294	3.9735	9.349
22.070	113.28	95.3290	3.9735	9.346
22.178	113.28	95.3284	3.9735	9.345
22.287	113.28	95.3279	3.9734	9.341
22.395	113.28	95.3274	3.9734	9.338
22.503	113.28	95.3270	3.9734	9.335
22.612	113.28	95.3272	3.9734	9.332
22.720	113.28	95.3271	3.9734	9.331
22.828	113.28	95.3270	3.9734	9.328
22.937	113.28	95.3266	3.9734	9.326
23.045	113.28	95.3260	3.9734	9.324
23.153	113.27	95.3256	3.9733	9.321
23.262	113.27	95.3248	3.9733	9.318
23.370	113.28	95.3244	3.9733	9.316
23.478	113.27	95.3243	3.9733	9.314
23.587	113.27	95.3241	3.9733	9.311
23.695	113.27	95.3234	3.9733	9.310
23.803	113.27	95.3227	3.9732	9.308
23.912	113.27	95.3225	3.9732	9.306
24.020	113.27	95.3218	3.9732	9.304
24.128	113.27	95.3214	3.9732	9.302
24.237	113.27	95.3212	3.9732	9.301
24.345	113.27	95.3207	3.9731	9.300
24.453	113.27	95.3206	3.9731	9.299
24.562	113.27	95.3205	3.9731	9.296
24.670	113.27	95.3202	3.9731	9.293
24.778	113.27	95.3197	3.9731	9.291
24.887	113.27	95.3193	3.9731	9.290
24.995	113.27	95.3190	3.9731	9.287
25.103	113.27	95.3188	3.9731	9.285
25.212	113.27	95.3186	3.9731	9.282
25.320	113.27	95.3184	3.9730	9.280
25.428	113.27	95.3182	3.9730	9.279
25.537	113.27	95.3179	3.9730	9.277
25.645	113.27	95.3174	3.9730	9.273
25.753	113.27	95.3172	3.9730	9.270
25.862	113.27	95.3169	3.9730	9.268
25.970	113.27	95.3167	3.9730	9.265
26.078	113.26	95.3164	3.9730	9.264
26.187	113.27	95.3161	3.9730	9.262
26.295	113.27	95.3158	3.9729	9.259
26.403	113.26	95.3156	3.9729	9.258
26.512	113.26	95.3154	3.9729	9.255
26.620	113.26	95.3147	3.9729	9.254
26.728	113.26	95.3142	3.9729	9.251
26.837	113.26	95.3138	3.9729	9.248
26.945	113.26	95.3134	3.9728	9.247
27.053	113.26	95.3129	3.9728	9.245
27.162	113.26	95.3128	3.9728	9.242
27.270	113.26	95.3126	3.9728	9.240
27.378	113.26	95.3122	3.9728	9.239
27.487	113.26	95.3120	3.9728	9.237
27.595	113.26	95.3115	3.9728	9.235
27.703	113.26	95.3113	3.9728	9.232
27.812	113.26	95.3117	3.9728	9.230
27.920	113.26	95.3113	3.9728	9.227
28.028	113.26	95.3113	3.9728	9.222
28.137	113.26	95.3108	3.9727	9.219
28.245	113.26	95.3108	3.9727	9.217
28.353	113.26	95.3106	3.9727	9.214
28.462	113.26	95.3106	3.9727	9.211
28.570	113.26	95.3101	3.9727	9.209
28.678	113.26	95.3098	3.9727	9.207
28.787	113.25	95.3095	3.9727	9.202
28.895	113.25	95.3093	3.9727	9.200
29.003	113.26	95.3089	3.9727	9.199
29.112	113.25	95.3085	3.9726	9.197
29.220	113.25	95.3083	3.9726	9.194
29.328	113.25	95.3082	3.9726	9.192
29.437	113.25	95.3078	3.9726	9.187
29.545	113.25	95.3072	3.9726	9.184
29.653	113.25	95.3067	3.9726	9.182
29.762	113.25	95.3065	3.9726	9.180
29.870	113.25	95.3063	3.9725	9.177
29.978	113.25	95.3059	3.9725	9.175
30.087	113.25	95.3057	3.9725	9.174
30.195	113.25	95.3055	3.9725	9.170
30.303	113.25	95.3053	3.9725	9.168
30.412	113.25	95.3049	3.9725	9.166
30.520	113.25	95.3048	3.9725	9.163
30.628	113.25	95.3046	3.9725	9.158
30.737	113.25	95.3041	3.9725	9.157
30.845	113.25	95.3037	3.9724	9.155
30.953	113.25	95.3040	3.9724	9.154
31.062	113.25	95.3039	3.9724	9.152
31.170	113.25	95.3037	3.9724	9.150
31.278	113.24	95.3037	3.9724	9.146
31.387	113.24	95.3036	3.9724	9.145
31.495	113.24	95.3033	3.9724	9.142
31.603	113.24	95.3028	3.9724	9.139
31.712	113.24	95.3022	3.9724	9.136
31.820	113.24	95.3017	3.9724	9.133
31.928	113.24	95.3013	3.9723	9.130
32.037	113.24	95.3010	3.9723	9.127
32.145	113.24	95.3008	3.9723	9.123
32.253	113.24	95.3005	3.9723	9.121
32.362	113.24	95.3003	3.9723	9.121
32.470	113.24	95.2997	3.9723	9.117
32.578	113.24	95.2996	3.9723	9.115
32.687	113.24	95.2992	3.9722	9.112
32.795	113.24	95.2990	3.9722	9.110
32.903	113.24	95.2989	3.9722	9.108
33.012	113.24	95.2986	3.9722	9.104
33.120	113.24	95.2989	3.9722	9.101
33.228	113.24	95.2989	3.9722	9.098
33.337	113.24	95.2990	3.9722	9.095
33.445	113.24	95.2986	3.9722	9.091
33.553	113.24	95.2979	3.9722	9.087
33.662	113.24	95.2976	3.9722	9.083
33.770	113.24	95.2971	3.9722	9.080
33.878	113.24	95.2971	3.9722	9.077
33.987	113.24	95.2972	3.9722	9.074
34.095	113.23	95.2970	3.9722	9.071
34.203	113.24	95.2968	3.9721	9.067
34.312	113.23	95.2965	3.9721	9.064
34.420	113.23	95.2963	3.9721	9.059
34.528	113.23	95.2961	3.9721	9.055
34.637	113.23	95.2961	3.9721	9.052
[...]
204.328	948.89	1.1437	0.0477	51.441
204.437	948.97	1.1427	0.0476	52.505
204.545	949.04	1.1416	0.0476	53.481
204.653	949.11	1.1404	0.0475	54.370
204.762	949.18	1.1397	0.0475	55.199
204.870	949.24	1.1382	0.0474	55.985
204.978	949.30	1.1371	0.0474	56.714
205.087	949.36	1.1362	0.0474	57.363
205.195	949.41	1.1352	0.0473	57.987
205.303	949.47	1.1342	0.0473	58.542
205.412	949.51	1.1330	0.0472	59.087
205.520	949.56	1.1315	0.0472	59.581
205.628	949.60	1.1303	0.0471	60.039
205.737	949.64	1.1291	0.0471	60.465
205.845	949.68	1.1278	0.0470	60.854
205.953	949.72	1.1265	0.0470	61.213
206.062	949.75	1.1257	0.0469	61.539
206.170	949.78	1.1244	0.0469	61.842
206.278	949.82	1.1235	0.0468	62.115
206.387	949.84	1.1226	0.0468	62.361
206.495	949.87	1.1210	0.0467	62.601
206.603	949.90	1.1197	0.0467	62.800
206.712	949.92	1.1186	0.0466	63.010
206.820	949.95	1.1175	0.0466	63.166
206.928	949.97	1.1167	0.0465	63.335
207.037	949.99	1.1152	0.0465	63.537
207.145	950.01	1.1142	0.0464	63.680
207.253	950.03	1.1132	0.0464	63.803
207.362	950.05	1.1121	0.0464	63.915
207.470	950.07	1.1106	0.0463	63.998
207.578	950.08	1.1095	0.0462	64.098
207.687	950.10	1.1083	0.0462	64.193
207.795	950.12	1.1072	0.0462	64.284
207.903	950.13	1.1064	0.0461	64.369
208.012	950.14	1.1052	0.0461	64.432
208.120	950.16	1.1038	0.0460	64.496
208.228	950.17	1.1029	0.0460	64.549
208.337	950.18	1.1023	0.0459	64.592
208.445	950.19	1.1012	0.0459	64.640
208.553	950.20	1.1000	0.0458	64.685
208.662	950.21	1.0988	0.0458	64.715
208.770	950.22	1.0975	0.0457	64.747
208.878	950.23	1.0965	0.0457	64.773
208.987	950.24	1.0953	0.0457	64.799
209.095	950.25	1.0940	0.0456	64.830
209.203	950.25	1.0926	0.0455	64.848
209.312	950.26	1.0917	0.0455	64.854
209.420	950.27	1.0906	0.0455	64.861
209.528	950.27	1.0898	0.0454	64.876
209.637	950.28	1.0889	0.0454	64.880
209.745	950.28	1.0879	0.0453	64.874
209.853	950.29	1.0868	0.0453	64.877
209.962	950.29	1.0858	0.0453	64.872
210.070	950.30	1.0850	0.0452	64.868
210.178	950.30	1.0842	0.0452	64.859
210.287	950.31	1.0831	0.0451	64.851
210.395	950.31	1.0817	0.0451	64.849
210.503	950.31	1.0805	0.0450	64.840
210.612	950.32	1.0798	0.0450	64.829
210.720	950.32	1.0789	0.0450	64.818
210.828	950.32	1.0779	0.0449	64.802
210.937	950.33	1.0772	0.0449	64.790
211.045	950.33	1.0763	0.0449	64.775
211.153	950.33	1.0757	0.0448	64.752
211.262	950.34	1.0745	0.0448	64.740
211.370	950.34	1.0733	0.0447	64.717
211.478	950.34	1.0722	0.0447	64.705
211.587	950.34	1.0709	0.0446	64.693
211.695	950.34	1.0698	0.0446	64.673
211.803	950.34	1.0694	0.0446	64.657
211.912	950.35	1.0690	0.0446	64.638
212.020	950.35	1.0682	0.0445	64.610
212.128	950.35	1.0673	0.0445	64.590
212.237	950.35	1.0661	0.0444	64.568
212.345	950.35	1.0650	0.0444	64.556
212.453	950.35	1.0643	0.0444	64.534
212.562	950.35	1.0635	0.0443	64.512
212.670	950.36	1.0623	0.0443	64.488
212.778	950.36	1.0613	0.0442	64.466
212.887	950.36	1.0602	0.0442	64.441
212.995	950.36	1.0590	0.0441	64.423
213.103	950.36	1.0579	0.0441	64.406
213.212	950.36	1.0570	0.0441	64.378
213.320	950.36	1.0560	0.0440	64.360
213.428	950.36	1.0553	0.0440	64.343
213.537	950.36	1.0543	0.0439	64.327
213.645	950.36	1.0531	0.0439	64.306
213.753	950.36	1.0525	0.0439	64.287
213.862	950.36	1.0516	0.0438	64.269
213.970	950.36	1.0504	0.0438	64.252
214.078	950.36	1.0492	0.0437	64.239
214.187	950.36	1.0480	0.0437	64.224
214.295	950.36	1.0471	0.0436	64.208
214.403	950.36	1.0461	0.0436	64.184
214.512	950.36	1.0454	0.0436	64.170
214.620	950.36	1.0444	0.0435	64.162
214.728	950.36	1.0436	0.0435	64.147
214.837	950.36	1.0428	0.0435	64.131
214.945	950.36	1.0422	0.0434	64.113
215.053	950.36	1.0415	0.0434	64.098
215.162	950.36	1.0408	0.0434	64.084
215.270	950.36	1.0400	0.0433	64.068
215.378	950.36	1.0391	0.0433	64.055
215.487	950.36	1.0381	0.0433	64.036
215.595	950.36	1.0371	0.0432	64.027
215.703	950.36	1.0357	0.0432	64.018
215.812	950.36	1.0342	0.0431	63.998
215.920	950.36	1.0328	0.0430	63.986
216.028	950.36	1.0317	0.0430	63.976
216.137	950.36	1.0307	0.0430	63.959
216.245	950.36	1.0296	0.0429	63.950
216.353	950.36	1.0285	0.0429	63.936
216.462	950.36	1.0278	0.0428	63.929
216.570	950.36	1.0271	0.0428	63.914
216.678	950.36	1.0260	0.0428	63.900
216.787	950.36	1.0253	0.0427	63.894
216.895	950.36	1.0243	0.0427	63.891
217.003	950.36	1.0233	0.0427	63.890
217.112	950.35	1.0224	0.0426	63.892
217.220	950.36	1.0211	0.0426	63.889
217.328	950.36	1.0201	0.0425	63.882
217.437	950.36	1.0193	0.0425	63.868
217.545	950.36	1.0183	0.0424	63.863
217.653	950.36	1.0171	0.0424	63.852
217.762	950.36	1.0159	0.0423	63.835
217.870	950.36	1.0150	0.0423	63.827
217.978	950.36	1.0140	0.0423	63.818
218.087	950.35	1.0134	0.0422	63.809
218.195	950.35	1.0127	0.0422	63.797
218.303	950.35	1.0119	0.0422	63.778
218.412	950.35	1.0112	0.0421	63.768
218.520	950.35	1.0106	0.0421	63.759
218.628	950.35	1.0101	0.0421	63.752
218.737	950.35	1.0091	0.0421	63.741
218.845	950.35	1.0081	0.0420	63.732
218.953	950.35	1.0073	0.0420	63.718
219.062	950.35	1.0064	0.0419	63.711
219.170	950.35	1.0050	0.0419	63.710
219.278	950.35	1.0042	0.0419	63.704
219.387	950.35	1.0033	0.0418	63.687
219.495	950.35	1.0024	0.0418	63.666
219.603	950.35	1.0016	0.0417	63.661
219.712	950.35	1.0007	0.0417	63.659
219.820	950.35	0.9996	0.0417	63.651
219.928	950.35	0.9989	0.0416	63.640
220.037	950.35	0.9980	0.0416	63.635
220.145	950.35	0.9974	0.0416	63.637
220.253	950.35	0.9967	0.0415	63.636
220.362	950.35	0.9955	0.0415	63.632
220.470	950.35	0.9948	0.0415	63.623
220.578	950.35	0.9938	0.0414	63.625
220.687	950.35	0.9930	0.0414	63.623
220.795	950.35	0.9918	0.0413	63.617
220.903	950.35	0.9907	0.0413	63.614
221.012	950.35	0.9898	0.0413	63.608
221.120	950.35	0.9889	0.0412	63.611
221.228	950.35	0.9881	0.0412	63.612
221.337	950.35	0.9873	0.0412	63.604
221.445	950.35	0.9863	0.0411	63.592
221.553	950.35	0.9855	0.0411	63.588
221.662	950.34	0.9842	0.0410	63.591
221.770	950.35	0.9833	0.0410	63.592
221.878	950.34	0.9824	0.0409	63.594
221.987	950.34	0.9818	0.0409	63.593
222.095	950.34	0.9808	0.0409	63.597
222.203	950.34	0.9798	0.0408	63.593
222.312	950.34	0.9785	0.0408	63.587
222.420	950.34	0.9778	0.0408	63.582
222.528	950.34	0.9770	0.0407	63.584
222.637	950.34	0.9763	0.0407	63.587
222.745	950.34	0.9753	0.0407	63.589
222.853	950.34	0.9744	0.0406	63.586
222.962	950.34	0.9731	0.0406	63.583
223.070	950.34	0.9718	0.0405	63.577
223.178	950.34	0.9709	0.0405	63.576
223.287	950.34	0.9703	0.0404	63.572
223.395	950.34	0.9694	0.0404	63.559
223.503	950.34	0.9682	0.0404	63.552
223.612	950.34	0.9674	0.0403	63.544
223.720	950.34	0.9666	0.0403	63.545
223.828	950.34	0.9661	0.0403	63.548
223.937	950.34	0.9656	0.0402	63.544
224.045	950.34	0.9647	0.0402	63.540
224.153	950.34	0.9643	0.0402	63.542
224.262	950.34	0.9635	0.0402	63.535
224.370	950.34	0.9621	0.0401	63.538
224.478	950.34	0.9613	0.0401	63.535
224.587	950.34	0.9601	0.0400	63.529
224.695	950.34	0.9594	0.0400	63.524
224.803	950.34	0.9585	0.0400	63.514
224.912	950.34	0.9577	0.0399	63.512
225.020	950.34	0.9565	0.0399	63.517
225.128	950.34	0.9556	0.0398	63.519
225.237	950.34	0.9548	0.0398	63.517
225.345	950.34	0.9543	0.0398	63.521
225.453	950.34	0.9535	0.0397	63.518
225.562	950.34	0.9531	0.0397	63.523
225.670	950.34	0.9521	0.0397	63.524
225.778	950.34	0.9509	0.0396	63.525
225.887	950.34	0.9504	0.0396	63.518
225.995	950.34	0.9495	0.0396	63.514
226.103	950.34	0.9486	0.0395	63.512
226.212	950.34	0.9473	0.0395	63.514
226.320	950.34	0.9462	0.0394	63.509
226.428	950.34	0.9453	0.0394	63.500
226.537	950.34	0.9445	0.0394	63.500
226.645	950.34	0.9441	0.0394	63.503
226.753	950.34	0.9428	0.0393	63.500
226.862	950.34	0.9416	0.0392	63.496
226.970	950.34	0.9404	0.0392	63.501
227.078	950.34	0.9393	0.0391	63.497
227.187	950.34	0.9385	0.0391	63.491
227.295	950.34	0.9379	0.0391	63.476
227.403	950.34	0.9370	0.0391	63.474
227.512	950.34	0.9358	0.0390	63.478
227.620	950.34	0.9345	0.0390	63.475
227.728	950.34	0.9336	0.0389	63.477
227.837	950.33	0.9329	0.0389	63.486
227.945	950.33	0.9319	0.0388	63.490
228.053	950.34	0.9309	0.0388	63.494
228.162	950.33	0.9296	0.0387	63.481
228.270	950.33	0.9279	0.0387	63.473
228.378	950.34	0.9268	0.0386	63.477
228.487	950.34	0.9258	0.0386	63.485
228.595	950.34	0.9249	0.0385	63.491
228.703	950.34	0.9242	0.0385	63.488
228.812	950.34	0.9230	0.0385	63.492
228.920	950.34	0.9222	0.0384	63.495
229.028	950.34	0.9211	0.0384	63.496
229.137	950.34	0.9203	0.0384	63.496
229.245	950.34	0.9191	0.0383	63.509
229.353	950.34	0.9180	0.0383	63.517
229.462	950.34	0.9168	0.0382	63.516
229.570	950.34	0.9154	0.0382	63.516
229.678	950.34	0.9138	0.0381	63.518
229.787	950.34	0.9129	0.0381	63.524
229.895	950.34	0.9117	0.0380	63.530
230.003	950.34	0.9102	0.0379	63.541
230.112	950.34	0.9094	0.0379	63.547
230.220	950.34	0.9080	0.0378	63.554
230.312		0.9069	0.0378