File: PSO Kinetics/data/softwood-20Kmin_3.txt
Filename	softwood-20Kmin_3
Instrument name	0650-0369 (192.168.1.2)
Operator	ca527
rundate	1/9/2023
Sample name	softwood-20Kmin_3
proceduresegments	Select Gas: Gas 1 ; Ramp 10.00 °C/min to 110.00 °C; Isothermal 30.0 min; Ramp 20.00 °C/min to 900.00 °C; Isothermal 30.0 min; Select Gas: Gas 2 ; Ramp 10.00 °C/min to 950.00 °C; Isothermal 10.0 min; Data Off ; Equilibrate 30.00 °C
[step]
Ramp 10.00 °C/min to 110.00 °C
Time	Temperature	Weight	Weight	Heat Flow
min	°C	%	mg	mW
0.003		100.0294	5.2453
0.037		100.1581	5.2521
0.070	22.09	100.2157	5.2551	-28.540
0.103	22.25	100.2128	5.2549	-28.320
0.137	22.41	100.2044	5.2545	-28.106
0.170	22.57	100.1962	5.2541	-27.898
0.203	22.72	100.1883	5.2536	-27.699
0.237	22.87	100.1806	5.2532	-27.504
0.270	23.02	100.1731	5.2529	-27.312
0.303	23.17	100.1655	5.2525	-27.125
0.337	23.32	100.1574	5.2520	-26.951
0.370	23.47	100.1489	5.2516	-26.782
0.403	23.61	100.1400	5.2511	-26.617
0.437	23.76	100.1306	5.2506	-26.460
0.470	23.91	100.1206	5.2501	-26.308
0.503	24.06	100.1097	5.2495	-26.164
0.537	24.21	100.0980	5.2489	-26.027
0.570	24.38	100.0856	5.2483	-25.901
0.603	24.54	100.0726	5.2476	-25.779
0.637	24.71	100.0592	5.2469	-25.668
0.670	24.89	100.0457	5.2462	-25.560
0.703	25.07	100.0320	5.2455	-25.458
0.737	25.26	100.0186	5.2447	-25.358
0.770	25.45	100.0056	5.2441	-25.262
0.803	25.65	99.9931	5.2434	-25.168
0.837	25.86	99.9813	5.2428	-25.075
0.870	26.07	99.9703	5.2422	-24.985
0.903	26.30	99.9599	5.2417	-24.891
0.937	26.52	99.9504	5.2412	-24.793
0.970	26.76	99.9416	5.2407	-24.690
1.003	27.00	99.9334	5.2403	-24.580
1.037	27.25	99.9257	5.2399	-24.463
1.070	27.50	99.9183	5.2395	-24.342
1.103	27.76	99.9114	5.2391	-24.214
1.137	28.03	99.9046	5.2388	-24.076
1.170	28.30	99.8978	5.2384	-23.927
1.203	28.59	99.8911	5.2381	-23.770
1.237	28.87	99.8842	5.2377	-23.604
1.270	29.17	99.8771	5.2373	-23.430
1.303	29.47	99.8697	5.2369	-23.246
1.337	29.77	99.8620	5.2365	-23.052
1.370	30.08	99.8542	5.2361	-22.851
1.403	30.40	99.8459	5.2357	-22.641
1.437	30.72	99.8374	5.2352	-22.423
1.470	31.04	99.8285	5.2348	-22.195
1.503	31.38	99.8192	5.2343	-21.960
1.537	31.71	99.8095	5.2338	-21.719
1.570	32.05	99.7995	5.2333	-21.472
1.603	32.39	99.7892	5.2327	-21.217
1.637	32.74	99.7785	5.2322	-20.957
1.670	33.09	99.7675	5.2316	-20.691
1.703	33.44	99.7564	5.2310	-20.422
1.737	33.80	99.7452	5.2304	-20.147
1.770	34.15	99.7336	5.2298	-19.872
1.803	34.52	99.7217	5.2292	-19.591
1.837	34.88	99.7094	5.2285	-19.308
1.870	35.24	99.6968	5.2279	-19.020
1.903	35.61	99.6839	5.2272	-18.729
1.937	35.98	99.6708	5.2265	-18.436
1.970	36.35	99.6576	5.2258	-18.141
2.003	36.72	99.6441	5.2251	-17.846
2.037	37.10	99.6303	5.2244	-17.550
2.070	37.47	99.6162	5.2236	-17.251
2.103	37.85	99.6018	5.2229	-16.952
2.137	38.22	99.5872	5.2221	-16.656
2.170	38.60	99.5723	5.2213	-16.357
2.203	38.98	99.5573	5.2206	-16.056
2.237	39.35	99.5421	5.2198	-15.759
2.270	39.73	99.5265	5.2189	-15.459
2.303	40.11	99.5107	5.2181	-15.159
2.337	40.48	99.4947	5.2173	-14.863
2.370	40.86	99.4784	5.2164	-14.574
2.403	41.24	99.4618	5.2156	-14.283
2.437	41.61	99.4450	5.2147	-13.993
2.470	41.99	99.4280	5.2138	-13.702
2.503	42.36	99.4107	5.2129	-13.414
2.537	42.74	99.3931	5.2120	-13.128
2.570	43.11	99.3753	5.2110	-12.845
2.603	43.48	99.3571	5.2101	-12.562
2.637	43.86	99.3387	5.2091	-12.277
2.670	44.23	99.3200	5.2081	-11.995
2.703	44.60	99.3011	5.2071	-11.719
2.737	44.96	99.2819	5.2061	-11.449
2.770	45.33	99.2623	5.2051	-11.179
2.803	45.70	99.2426	5.2041	-10.915
2.837	46.07	99.2225	5.2030	-10.657
2.870	46.43	99.2022	5.2019	-10.399
2.903	46.79	99.1816	5.2009	-10.144
2.937	47.16	99.1609	5.1998	-9.887
2.970	47.52	99.1399	5.1987	-9.632
3.003	47.88	99.1185	5.1976	-9.379
3.037	48.24	99.0969	5.1964	-9.133
3.070	48.60	99.0751	5.1953	-8.889
3.103	48.96	99.0531	5.1941	-8.648
3.137	49.31	99.0309	5.1930	-8.409
3.170	49.67	99.0085	5.1918	-8.176
3.203	50.02	98.9858	5.1906	-7.946
3.237	50.38	98.9629	5.1894	-7.720
3.270	50.73	98.9398	5.1882	-7.495
3.303	51.08	98.9164	5.1870	-7.274
3.337	51.43	98.8928	5.1857	-7.052
3.370	51.78	98.8690	5.1845	-6.833
3.403	52.13	98.8450	5.1832	-6.615
3.437	52.48	98.8209	5.1819	-6.407
3.470	52.82	98.7966	5.1807	-6.201
3.503	53.17	98.7722	5.1794	-5.997
3.537	53.51	98.7478	5.1781	-5.796
3.570	53.86	98.7233	5.1768	-5.597
3.603	54.20	98.6986	5.1755	-5.397
3.637	54.55	98.6737	5.1742	-5.205
3.670	54.89	98.6486	5.1729	-5.014
3.703	55.23	98.6234	5.1716	-4.823
3.737	55.58	98.5981	5.1703	-4.634
3.770	55.92	98.5727	5.1689	-4.448
3.803	56.26	98.5472	5.1676	-4.263
3.837	56.60	98.5218	5.1663	-4.082
3.870	56.94	98.4964	5.1649	-3.903
3.903	57.28	98.4710	5.1636	-3.724
3.937	57.62	98.4455	5.1623	-3.548
3.970	57.96	98.4199	5.1609	-3.375
4.003	58.30	98.3943	5.1596	-3.206
4.037	58.64	98.3687	5.1582	-3.039
4.070	58.98	98.3431	5.1569	-2.871
4.103	59.32	98.3176	5.1556	-2.704
4.137	59.66	98.2921	5.1542	-2.539
4.170	59.99	98.2667	5.1529	-2.377
4.203	60.33	98.2415	5.1516	-2.213
4.237	60.67	98.2164	5.1502	-2.050
4.270	61.01	98.1913	5.1489	-1.895
4.303	61.35	98.1663	5.1476	-1.743
4.337	61.68	98.1414	5.1463	-1.592
4.370	62.02	98.1166	5.1450	-1.437
4.403	62.36	98.0919	5.1437	-1.285
4.437	62.70	98.0673	5.1424	-1.135
4.470	63.03	98.0428	5.1411	-0.986
4.503	63.37	98.0185	5.1399	-0.837
4.537	63.71	97.9942	5.1386	-0.687
4.570	64.05	97.9702	5.1373	-0.543
4.603	64.39	97.9462	5.1361	-0.400
4.637	64.73	97.9225	5.1348	-0.260
4.670	65.07	97.8991	5.1336	-0.121
4.703	65.40	97.8758	5.1324	0.020
4.737	65.74	97.8528	5.1312	0.160
4.770	66.08	97.8300	5.1300	0.298
4.803	66.42	97.8074	5.1288	0.437
4.837	66.76	97.7850	5.1276	0.573
4.870	67.10	97.7629	5.1265	0.706
4.903	67.44	97.7409	5.1253	0.837
4.937	67.78	97.7192	5.1242	0.971
4.970	68.12	97.6977	5.1230	1.104
5.003	68.46	97.6764	5.1219	1.236
5.037	68.80	97.6555	5.1208	1.367
5.070	69.14	97.6348	5.1197	1.495
5.103	69.48	97.6143	5.1187	1.622
5.137	69.82	97.5942	5.1176	1.750
5.170	70.16	97.5743	5.1166	1.876
5.203	70.51	97.5546	5.1155	2.001
5.237	70.85	97.5351	5.1145	2.118
5.270	71.19	97.5158	5.1135	2.236
5.303	71.53	97.4970	5.1125	2.357
5.337	71.87	97.4786	5.1116	2.480
5.370	72.22	97.4604	5.1106	2.603
5.403	72.56	97.4425	5.1097	2.724
5.437	72.90	97.4248	5.1087	2.840
5.470	73.24	97.4074	5.1078	2.956
5.503	73.59	97.3903	5.1069	3.073
5.537	73.93	97.3734	5.1060	3.188
5.570	74.28	97.3568	5.1052	3.305
5.603	74.62	97.3404	5.1043	3.415
5.637	74.96	97.3243	5.1035	3.524
5.670	75.31	97.3084	5.1026	3.635
5.703	75.65	97.2928	5.1018	3.743
5.737	76.00	97.2776	5.1010	3.851
5.770	76.34	97.2626	5.1002	3.955
5.803	76.69	97.2479	5.0995	4.064
5.837	77.03	97.2335	5.0987	4.169
5.870	77.38	97.2193	5.0980	4.274
5.903	77.72	97.2054	5.0972	4.377
5.937	78.07	97.1919	5.0965	4.478
5.970	78.41	97.1786	5.0958	4.574
6.003	78.76	97.1657	5.0951	4.672
6.037	79.10	97.1529	5.0945	4.773
6.070	79.45	97.1405	5.0938	4.871
6.103	79.80	97.1284	5.0932	4.971
6.137	80.14	97.1166	5.0926	5.061
6.170	80.49	97.1050	5.0920	5.152
6.203	80.83	97.0937	5.0914	5.244
6.237	81.18	97.0827	5.0908	5.336
6.270	81.52	97.0720	5.0902	5.425
6.303	81.87	97.0617	5.0897	5.516
6.337	82.21	97.0516	5.0892	5.600
6.370	82.56	97.0416	5.0886	5.686
6.403	82.91	97.0318	5.0881	5.772
6.437	83.25	97.0224	5.0876	5.855
6.470	83.60	97.0131	5.0871	5.937
6.503	83.95	97.0040	5.0867	6.021
6.537	84.29	96.9952	5.0862	6.100
6.570	84.64	96.9867	5.0858	6.175
6.603	84.98	96.9783	5.0853	6.251
6.637	85.33	96.9701	5.0849	6.333
6.670	85.68	96.9622	5.0845	6.413
6.703	86.02	96.9546	5.0841	6.488
6.737	86.37	96.9472	5.0837	6.562
6.770	86.71	96.9401	5.0833	6.635
6.803	87.06	96.9332	5.0830	6.710
6.837	87.41	96.9264	5.0826	6.778
6.870	87.75	96.9196	5.0822	6.843
6.903	88.10	96.9131	5.0819	6.907
6.937	88.44	96.9070	5.0816	6.972
6.970	88.79	96.9010	5.0813	7.038
7.003	89.14	96.8952	5.0810	7.101
7.037	89.48	96.8895	5.0807	7.163
7.070	89.82	96.8840	5.0804	7.224
7.103	90.17	96.8787	5.0801	7.282
7.137	90.52	96.8736	5.0798	7.342
7.170	90.86	96.8687	5.0796	7.402
7.203	91.21	96.8641	5.0793	7.460
7.237	91.55	96.8595	5.0791	7.512
7.270	91.89	96.8552	5.0789	7.564
7.303	92.24	96.8509	5.0786	7.617
7.337	92.58	96.8468	5.0784	7.667
7.370	92.93	96.8428	5.0782	7.714
7.403	93.27	96.8391	5.0780	7.764
7.437	93.62	96.8355	5.0778	7.812
7.470	93.96	96.8321	5.0777	7.859
7.503	94.31	96.8286	5.0775	7.904
7.537	94.65	96.8253	5.0773	7.951
7.570	95.00	96.8222	5.0771	7.991
7.603	95.34	96.8191	5.0770	8.028
7.637	95.68	96.8162	5.0768	8.065
7.670	96.03	96.8132	5.0767	8.104
7.703	96.37	96.8104	5.0765	8.141
7.737	96.72	96.8077	5.0764	8.178
7.770	97.06	96.8052	5.0762	8.212
7.803	97.40	96.8026	5.0761	8.247
7.837	97.75	96.8001	5.0760	8.277
7.870	98.09	96.7978	5.0759	8.303
7.903	98.43	96.7956	5.0757	8.331
7.937	98.78	96.7935	5.0756	8.360
7.970	99.12	96.7914	5.0755	8.391
8.003	99.46	96.7893	5.0754	8.416
8.037	99.81	96.7873	5.0753	8.437
8.070	100.15	96.7854	5.0752	8.457
8.103	100.49	96.7835	5.0751	8.478
8.137	100.84	96.7817	5.0750	8.502
8.170	101.18	96.7800	5.0749	8.527
8.203	101.52	96.7784	5.0748	8.551
8.237	101.86	96.7785	5.0748	8.565
8.270	102.21	96.7806	5.0750	8.572
8.303	102.55	96.7836	5.0751	8.578
8.337	102.89	96.7862	5.0753	8.585
8.370	103.23	96.7885	5.0754	8.591
8.403	103.58	96.7904	5.0755	8.599
8.437	103.92	96.7920	5.0756	8.609
8.470	104.26	96.7934	5.0756	8.618
8.503	104.60	96.7945	5.0757	8.628
8.537	104.94	96.7936	5.0756	8.641
8.570	105.29	96.7900	5.0755	8.660
8.603	105.63	96.7850	5.0752	8.678
8.637	105.97	96.7804	5.0749	8.691
8.670	106.31	96.7763	5.0747	8.696
8.695	106.57	96.7735	5.0746	8.700

[step]
Isothermal 30.0 min
Time	Temperature	Weight	Weight	Heat Flow
min	°C	%	mg	mW
8.703	106.65	96.7727	5.0745	8.702
8.812	107.76	96.7635	5.0741	8.726
8.920	108.83	96.7555	5.0736	8.801
9.028	109.83	96.7490	5.0733	8.948
9.137	110.74	96.7430	5.0730	9.139
9.245	111.52	96.7372	5.0727	9.359
9.353	112.19	96.7315	5.0724	9.581
9.462	112.72	96.7259	5.0721	9.795
9.570	113.11	96.7210	5.0718	10.012
9.678	113.37	96.7155	5.0715	10.189
9.787	113.52	96.7101	5.0713	10.311
9.895	113.57	96.7048	5.0710	10.382
10.003	113.53	96.6996	5.0707	10.406
10.112	113.42	96.6946	5.0704	10.409
10.220	113.27	96.6891	5.0702	10.359
10.328	113.09	96.6849	5.0699	10.224
10.437	112.90	96.6815	5.0698	10.069
10.545	112.72	96.6787	5.0696	9.908
10.653	112.54	96.6762	5.0695	9.746
10.762	112.36	96.6739	5.0694	9.589
10.870	112.21	96.6720	5.0693	9.436
10.978	112.08	96.6704	5.0692	9.296
11.087	111.97	96.6690	5.0691	9.173
11.195	111.88	96.6678	5.0690	9.041
11.303	111.82	96.6668	5.0690	8.942
11.412	111.79	96.6659	5.0689	8.855
11.520	111.77	96.6651	5.0689	8.779
11.628	111.78	96.6642	5.0689	8.711
11.737	111.81	96.6636	5.0688	8.669
11.845	111.85	96.6626	5.0688	8.633
11.953	111.90	96.6619	5.0687	8.601
12.062	111.97	96.6611	5.0687	8.579
12.170	112.04	96.6601	5.0686	8.566
12.278	112.12	96.6596	5.0686	8.557
12.387	112.20	96.6589	5.0686	8.553
12.495	112.29	96.6581	5.0685	8.558
12.603	112.37	96.6571	5.0685	8.566
12.712	112.44	96.6561	5.0684	8.579
12.820	112.52	96.6552	5.0684	8.599
12.928	112.58	96.6545	5.0683	8.616
13.037	112.65	96.6535	5.0683	8.630
13.145	112.70	96.6523	5.0682	8.644
13.253	112.75	96.6510	5.0682	8.666
13.362	112.79	96.6497	5.0681	8.678
13.470	112.83	96.6486	5.0680	8.687
13.578	112.86	96.6478	5.0680	8.697
13.687	112.88	96.6467	5.0679	8.705
13.795	112.90	96.6456	5.0679	8.710
13.903	112.92	96.6447	5.0678	8.713
14.012	112.93	96.6436	5.0678	8.714
14.120	112.93	96.6427	5.0677	8.712
14.228	112.94	96.6417	5.0677	8.705
14.337	112.94	96.6409	5.0676	8.699
14.445	112.94	96.6401	5.0676	8.690
14.553	112.94	96.6394	5.0676	8.684
14.662	112.94	96.6387	5.0675	8.674
14.770	112.94	96.6382	5.0675	8.662
14.878	112.94	96.6372	5.0674	8.650
14.987	112.94	96.6364	5.0674	8.640
15.095	112.94	96.6356	5.0674	8.630
15.203	112.94	96.6348	5.0673	8.621
15.312	112.94	96.6343	5.0673	8.609
15.420	112.95	96.6338	5.0673	8.597
15.528	112.95	96.6331	5.0672	8.584
15.637	112.96	96.6324	5.0672	8.574
15.745	112.96	96.6318	5.0672	8.563
15.853	112.97	96.6310	5.0671	8.556
15.962	112.98	96.6301	5.0671	8.545
16.070	112.98	96.6292	5.0670	8.538
16.178	112.99	96.6284	5.0670	8.532
16.287	113.00	96.6279	5.0670	8.526
16.395	113.01	96.6270	5.0669	8.519
16.503	113.01	96.6267	5.0669	8.512
16.612	113.02	96.6261	5.0669	8.506
16.720	113.03	96.6256	5.0668	8.498
16.828	113.03	96.6251	5.0668	8.494
16.937	113.04	96.6245	5.0668	8.488
17.045	113.04	96.6239	5.0667	8.485
17.153	113.05	96.6232	5.0667	8.480
17.262	113.06	96.6227	5.0667	8.476
17.370	113.06	96.6221	5.0666	8.472
17.478	113.06	96.6212	5.0666	8.467
17.587	113.07	96.6205	5.0666	8.461
17.695	113.07	96.6199	5.0665	8.456
17.803	113.07	96.6195	5.0665	8.451
17.912	113.07	96.6191	5.0665	8.445
18.020	113.07	96.6183	5.0664	8.439
18.128	113.07	96.6177	5.0664	8.434
18.237	113.08	96.6171	5.0664	8.433
18.345	113.08	96.6164	5.0663	8.424
18.453	113.08	96.6158	5.0663	8.420
18.562	113.08	96.6154	5.0663	8.414
18.670	113.08	96.6149	5.0663	8.405
18.778	113.08	96.6145	5.0662	8.396
18.887	113.08	96.6140	5.0662	8.388
18.995	113.08	96.6132	5.0662	8.379
19.103	113.08	96.6127	5.0662	8.374
19.212	113.08	96.6122	5.0661	8.371
19.320	113.08	96.6118	5.0661	8.365
19.428	113.08	96.6117	5.0661	8.357
19.537	113.08	96.6112	5.0661	8.353
19.645	113.08	96.6106	5.0660	8.344
19.753	113.08	96.6101	5.0660	8.338
19.862	113.08	96.6097	5.0660	8.333
19.970	113.08	96.6090	5.0660	8.325
20.078	113.08	96.6086	5.0659	8.318
20.187	113.08	96.6082	5.0659	8.311
20.295	113.08	96.6079	5.0659	8.305
20.403	113.08	96.6077	5.0659	8.303
20.512	113.08	96.6074	5.0659	8.297
20.620	113.08	96.6069	5.0658	8.290
20.728	113.08	96.6061	5.0658	8.284
20.837	113.08	96.6054	5.0658	8.279
20.945	113.08	96.6049	5.0657	8.273
21.053	113.08	96.6044	5.0657	8.270
21.162	113.08	96.6041	5.0657	8.264
21.270	113.08	96.6039	5.0657	8.258
21.378	113.08	96.6035	5.0657	8.248
21.487	113.08	96.6031	5.0656	8.242
21.595	113.08	96.6027	5.0656	8.238
21.703	113.08	96.6023	5.0656	8.234
21.812	113.08	96.6018	5.0656	8.229
21.920	113.08	96.6014	5.0656	8.224
22.028	113.08	96.6008	5.0655	8.218
22.137	113.08	96.6005	5.0655	8.212
22.245	113.08	96.6002	5.0655	8.206
22.353	113.08	96.6001	5.0655	8.197
22.462	113.08	96.5998	5.0655	8.191
22.570	113.08	96.5991	5.0654	8.186
22.678	113.08	96.5987	5.0654	8.181
22.787	113.08	96.5982	5.0654	8.177
22.895	113.08	96.5978	5.0654	8.174
23.003	113.08	96.5973	5.0653	8.172
23.112	113.08	96.5967	5.0653	8.166
23.220	113.08	96.5963	5.0653	8.161
23.328	113.07	96.5960	5.0653	8.154
23.437	113.07	96.5956	5.0653	8.147
23.545	113.07	96.5953	5.0652	8.143
23.653	113.07	96.5951	5.0652	8.138
23.762	113.07	96.5946	5.0652	8.131
23.870	113.07	96.5942	5.0652	8.127
23.978	113.07	96.5939	5.0652	8.122
24.087	113.07	96.5935	5.0651	8.116
24.195	113.07	96.5931	5.0651	8.113
24.303	113.07	96.5926	5.0651	8.106
24.412	113.07	96.5920	5.0651	8.103
24.520	113.07	96.5917	5.0651	8.099
24.628	113.07	96.5914	5.0650	8.087
24.737	113.07	96.5910	5.0650	8.082
24.845	113.07	96.5906	5.0650	8.079
24.953	113.07	96.5901	5.0650	8.077
25.062	113.07	96.5899	5.0650	8.076
25.170	113.06	96.5894	5.0649	8.073
25.278	113.06	96.5889	5.0649	8.069
25.387	113.06	96.5885	5.0649	8.065
25.495	113.06	96.5880	5.0649	8.059
25.603	113.06	96.5876	5.0648	8.052
25.712	113.06	96.5873	5.0648	8.049
25.820	113.06	96.5869	5.0648	8.044
25.928	113.06	96.5864	5.0648	8.038
26.037	113.06	96.5862	5.0648	8.033
26.145	113.06	96.5860	5.0648	8.029
26.253	113.06	96.5859	5.0647	8.024
26.362	113.06	96.5855	5.0647	8.018
26.470	113.06	96.5853	5.0647	8.015
26.578	113.06	96.5848	5.0647	8.010
26.687	113.06	96.5844	5.0647	8.006
26.795	113.06	96.5841	5.0647	8.002
26.903	113.06	96.5835	5.0646	8.000
27.012	113.05	96.5832	5.0646	7.997
27.120	113.05	96.5828	5.0646	7.990
27.228	113.05	96.5823	5.0646	7.985
27.337	113.05	96.5820	5.0645	7.978
27.445	113.05	96.5817	5.0645	7.971
27.553	113.05	96.5814	5.0645	7.967
27.662	113.05	96.5810	5.0645	7.966
27.770	113.05	96.5806	5.0645	7.962
27.878	113.05	96.5802	5.0644	7.956
27.987	113.05	96.5798	5.0644	7.948
28.095	113.05	96.5794	5.0644	7.943
28.203	113.05	96.5791	5.0644	7.940
28.312	113.05	96.5790	5.0644	7.937
28.420	113.05	96.5786	5.0644	7.934
28.528	113.05	96.5784	5.0644	7.931
28.637	113.05	96.5780	5.0643	7.925
28.745	113.05	96.5778	5.0643	7.918
28.853	113.05	96.5778	5.0643	7.913
28.962	113.05	96.5776	5.0643	7.911
29.070	113.04	96.5773	5.0643	7.906
29.178	113.04	96.5769	5.0643	7.901
29.287	113.04	96.5766	5.0643	7.898
29.395	113.04	96.5764	5.0643	7.894
29.503	113.04	96.5762	5.0642	7.887
29.612	113.04	96.5757	5.0642	7.879
29.720	113.04	96.5753	5.0642	7.871
29.828	113.04	96.5748	5.0642	7.867
29.937	113.04	96.5747	5.0642	7.864
30.045	113.04	96.5743	5.0641	7.863
30.153	113.04	96.5737	5.0641	7.860
30.262	113.04	96.5734	5.0641	7.857
30.370	113.04	96.5731	5.0641	7.852
30.478	113.04	96.5728	5.0641	7.848
30.587	113.04	96.5724	5.0640	7.845
30.695	113.04	96.5719	5.0640	7.842
30.803	113.04	96.5715	5.0640	7.839
30.912	113.04	96.5712	5.0640	7.834
31.020	113.03	96.5708	5.0640	7.827
31.128	113.03	96.5705	5.0639	7.821
31.237	113.03	96.5706	5.0639	7.818
31.345	113.03	96.5703	5.0639	7.815
31.453	113.03	96.5702	5.0639	7.812
31.562	113.03	96.5699	5.0639	7.810
31.670	113.03	96.5696	5.0639	7.806
31.778	113.03	96.5693	5.0639	7.801
31.887	113.03	96.5690	5.0639	7.796
31.995	113.03	96.5690	5.0639	7.793
32.103	113.03	96.5685	5.0638	7.789
32.212	113.03	96.5686	5.0638	7.784
32.320	113.03	96.5685	5.0638	7.782
32.428	113.03	96.5682	5.0638	7.777
32.537	113.03	96.5679	5.0638	7.771
32.645	113.03	96.5673	5.0638	7.769
32.753	113.03	96.5670	5.0638	7.765
32.862	113.03	96.5667	5.0637	7.759
32.970	113.03	96.5664	5.0637	7.754
[...]
113.745	947.90	-2.3317	-0.1223	59.356
113.787	947.96	-2.3322	-0.1223	59.994
113.828	948.01	-2.3326	-0.1223	60.625
113.870	948.05	-2.3330	-0.1223	61.251
113.912	948.08	-2.3332	-0.1223	61.875
113.953	948.11	-2.3334	-0.1224	62.490
113.995	948.13	-2.3338	-0.1224	63.082
114.037	948.15	-2.3341	-0.1224	63.654
114.078	948.17	-2.3345	-0.1224	64.216
114.120	948.19	-2.3349	-0.1224	64.763
114.162	948.21	-2.3351	-0.1224	65.292
114.203	948.22	-2.3355	-0.1225	65.809
114.245	948.24	-2.3358	-0.1225	66.311
114.287	948.26	-2.3360	-0.1225	66.800
114.328	948.28	-2.3363	-0.1225	67.281
114.370	948.30	-2.3366	-0.1225	67.749
114.412	948.32	-2.3369	-0.1225	68.207
114.453	948.34	-2.3373	-0.1226	68.661
114.495	948.36	-2.3377	-0.1226	69.102
114.537	948.39	-2.3380	-0.1226	69.527
114.578	948.41	-2.3382	-0.1226	69.949
114.620	948.43	-2.3383	-0.1226	70.369
114.662	948.46	-2.3384	-0.1226	70.778
114.703	948.48	-2.3385	-0.1226	71.174
114.745	948.51	-2.3388	-0.1226	71.567
114.787	948.53	-2.3390	-0.1227	71.952
114.828	948.55	-2.3391	-0.1227	72.319
114.870	948.58	-2.3393	-0.1227	72.685
114.912	948.60	-2.3394	-0.1227	73.055
114.953	948.62	-2.3396	-0.1227	73.406
114.995	948.65	-2.3398	-0.1227	73.749
115.037	948.67	-2.3401	-0.1227	74.089
115.078	948.69	-2.3403	-0.1227	74.412
115.120	948.71	-2.3404	-0.1227	74.730
115.162	948.73	-2.3406	-0.1227	75.050
115.203	948.75	-2.3407	-0.1227	75.362
115.245	948.77	-2.3408	-0.1227	75.665
115.287	948.79	-2.3411	-0.1228	75.954
115.328	948.80	-2.3415	-0.1228	76.231
115.370	948.82	-2.3417	-0.1228	76.503
115.412	948.84	-2.3420	-0.1228	76.770
115.453	948.86	-2.3422	-0.1228	77.041
115.495	948.87	-2.3424	-0.1228	77.303
115.537	948.89	-2.3427	-0.1228	77.555
115.578	948.90	-2.3430	-0.1229	77.805
115.620	948.92	-2.3433	-0.1229	78.047
115.662	948.93	-2.3434	-0.1229	78.289
115.703	948.95	-2.3436	-0.1229	78.516
115.745	948.96	-2.3438	-0.1229	78.739
115.787	948.97	-2.3440	-0.1229	78.958
115.828	948.98	-2.3443	-0.1229	79.182
115.870	949.00	-2.3445	-0.1229	79.406
115.912	949.01	-2.3448	-0.1230	79.611
115.953	949.02	-2.3449	-0.1230	79.816
115.995	949.03	-2.3451	-0.1230	80.015
116.037	949.04	-2.3454	-0.1230	80.203
116.078	949.05	-2.3456	-0.1230	80.396
116.120	949.06	-2.3458	-0.1230	80.574
116.162	949.08	-2.3460	-0.1230	80.739
116.203	949.09	-2.3462	-0.1230	80.914
116.245	949.09	-2.3464	-0.1230	81.078
116.287	949.10	-2.3467	-0.1231	81.240
116.328	949.11	-2.3472	-0.1231	81.401
116.370	949.12	-2.3476	-0.1231	81.563
116.412	949.13	-2.3479	-0.1231	81.725
116.453	949.14	-2.3481	-0.1231	81.870
116.495	949.15	-2.3483	-0.1231	82.005
116.537	949.16	-2.3486	-0.1232	82.147
116.578	949.17	-2.3489	-0.1232	82.286
116.620	949.18	-2.3493	-0.1232	82.424
116.662	949.18	-2.3496	-0.1232	82.560
116.703	949.19	-2.3498	-0.1232	82.696
116.745	949.20	-2.3501	-0.1232	82.829
116.787	949.20	-2.3504	-0.1232	82.948
116.828	949.21	-2.3506	-0.1233	83.080
116.870	949.22	-2.3507	-0.1233	83.206
116.912	949.22	-2.3509	-0.1233	83.320
116.953	949.23	-2.3512	-0.1233	83.436
116.995	949.24	-2.3516	-0.1233	83.553
117.037	949.24	-2.3518	-0.1233	83.663
117.078	949.25	-2.3521	-0.1233	83.764
117.120	949.26	-2.3523	-0.1233	83.867
117.162	949.26	-2.3526	-0.1234	83.978
117.203	949.27	-2.3530	-0.1234	84.081
117.245	949.27	-2.3534	-0.1234	84.172
117.287	949.28	-2.3537	-0.1234	84.263
117.328	949.28	-2.3539	-0.1234	84.350
117.370	949.29	-2.3542	-0.1234	84.432
117.412	949.29	-2.3545	-0.1235	84.511
117.453	949.30	-2.3547	-0.1235	84.597
117.495	949.30	-2.3549	-0.1235	84.687
117.537	949.31	-2.3552	-0.1235	84.768
117.578	949.31	-2.3553	-0.1235	84.850
117.620	949.32	-2.3556	-0.1235	84.932
117.662	949.32	-2.3559	-0.1235	85.008
117.703	949.33	-2.3562	-0.1236	85.084
117.745	949.33	-2.3566	-0.1236	85.160
117.787	949.33	-2.3570	-0.1236	85.241
117.828	949.34	-2.3575	-0.1236	85.319
117.870	949.34	-2.3580	-0.1236	85.388
117.912	949.35	-2.3583	-0.1237	85.458
117.953	949.35	-2.3584	-0.1237	85.531
117.995	949.35	-2.3586	-0.1237	85.592
118.037	949.36	-2.3589	-0.1237	85.648
118.078	949.36	-2.3592	-0.1237	85.711
118.120	949.36	-2.3594	-0.1237	85.784
118.162	949.37	-2.3596	-0.1237	85.854
118.203	949.37	-2.3600	-0.1238	85.910
118.245	949.38	-2.3604	-0.1238	85.963
118.287	949.38	-2.3607	-0.1238	86.027
118.328	949.38	-2.3610	-0.1238	86.093
118.370	949.39	-2.3613	-0.1238	86.141
118.412	949.39	-2.3615	-0.1238	86.187
118.453	949.39	-2.3619	-0.1239	86.239
118.495	949.40	-2.3621	-0.1239	86.291
118.537	949.40	-2.3624	-0.1239	86.335
118.578	949.40	-2.3628	-0.1239	86.369
118.620	949.40	-2.3631	-0.1239	86.423
118.662	949.41	-2.3633	-0.1239	86.483
118.703	949.41	-2.3636	-0.1239	86.526
118.745	949.41	-2.3640	-0.1240	86.572
118.787	949.41	-2.3643	-0.1240	86.617
118.828	949.42	-2.3645	-0.1240	86.655
118.870	949.42	-2.3647	-0.1240	86.694
118.912	949.42	-2.3650	-0.1240	86.731
118.953	949.42	-2.3654	-0.1240	86.771
118.995	949.43	-2.3658	-0.1241	86.813
119.037	949.43	-2.3661	-0.1241	86.851
119.078	949.43	-2.3663	-0.1241	86.887
119.120	949.43	-2.3665	-0.1241	86.916
119.162	949.44	-2.3667	-0.1241	86.945
119.203	949.44	-2.3669	-0.1241	86.976
119.245	949.44	-2.3671	-0.1241	87.009
119.287	949.44	-2.3673	-0.1241	87.047
119.328	949.44	-2.3678	-0.1242	87.090
119.370	949.45	-2.3682	-0.1242	87.129
119.412	949.45	-2.3684	-0.1242	87.161
119.453	949.45	-2.3686	-0.1242	87.194
119.495	949.45	-2.3689	-0.1242	87.237
119.537	949.45	-2.3691	-0.1242	87.278
119.578	949.46	-2.3695	-0.1243	87.307
119.620	949.46	-2.3699	-0.1243	87.332
119.662	949.46	-2.3703	-0.1243	87.354
119.703	949.46	-2.3706	-0.1243	87.379
119.745	949.46	-2.3709	-0.1243	87.413
119.787	949.46	-2.3713	-0.1243	87.446
119.828	949.46	-2.3716	-0.1244	87.475
119.870	949.47	-2.3720	-0.1244	87.509
119.912	949.47	-2.3724	-0.1244	87.543
119.953	949.47	-2.3728	-0.1244	87.571
119.995	949.47	-2.3730	-0.1244	87.600
120.037	949.47	-2.3733	-0.1245	87.628
120.078	949.47	-2.3736	-0.1245	87.653
120.120	949.48	-2.3737	-0.1245	87.679
120.162	949.48	-2.3739	-0.1245	87.702
120.203	949.48	-2.3742	-0.1245	87.726
120.245	949.48	-2.3745	-0.1245	87.755
120.287	949.48	-2.3748	-0.1245	87.781
120.328	949.48	-2.3750	-0.1245	87.805
120.370	949.48	-2.3754	-0.1246	87.830
120.412	949.48	-2.3757	-0.1246	87.857
120.453	949.48	-2.3760	-0.1246	87.884
120.495	949.49	-2.3763	-0.1246	87.919
120.537	949.49	-2.3766	-0.1246	87.953
120.578	949.49	-2.3769	-0.1246	87.976
120.620	949.49	-2.3772	-0.1247	87.993
120.662	949.49	-2.3776	-0.1247	88.010
120.703	949.49	-2.3779	-0.1247	88.026
120.745	949.49	-2.3782	-0.1247	88.045
120.787	949.50	-2.3785	-0.1247	88.064
120.828	949.50	-2.3790	-0.1247	88.083
120.870	949.50	-2.3795	-0.1248	88.100
120.912	949.50	-2.3799	-0.1248	88.114
120.953	949.50	-2.3801	-0.1248	88.132
120.995	949.50	-2.3804	-0.1248	88.155
121.037	949.50	-2.3806	-0.1248	88.173
121.078	949.50	-2.3808	-0.1248	88.189
121.120	949.50	-2.3811	-0.1249	88.207
121.162	949.51	-2.3813	-0.1249	88.222
121.203	949.51	-2.3816	-0.1249	88.237
121.245	949.51	-2.3820	-0.1249	88.253
121.287	949.51	-2.3824	-0.1249	88.269
121.328	949.51	-2.3829	-0.1250	88.289
121.370	949.51	-2.3833	-0.1250	88.310
121.412	949.51	-2.3836	-0.1250	88.334
121.453	949.51	-2.3838	-0.1250	88.357
121.495	949.51	-2.3841	-0.1250	88.377
121.537	949.51	-2.3843	-0.1250	88.392
121.578	949.51	-2.3845	-0.1250	88.403
121.620	949.51	-2.3848	-0.1251	88.413
121.662	949.51	-2.3851	-0.1251	88.426
121.703	949.51	-2.3855	-0.1251	88.448
121.745	949.52	-2.3858	-0.1251	88.472
121.787	949.52	-2.3859	-0.1251	88.487
121.828	949.52	-2.3862	-0.1251	88.495
121.870	949.52	-2.3864	-0.1251	88.506
121.912	949.52	-2.3866	-0.1251	88.519
121.953	949.52	-2.3868	-0.1252	88.532
121.995	949.52	-2.3871	-0.1252	88.543
122.037	949.52	-2.3874	-0.1252	88.554
122.078	949.52	-2.3878	-0.1252	88.563
122.120	949.52	-2.3882	-0.1252	88.575
122.162	949.52	-2.3885	-0.1252	88.590
122.203	949.52	-2.3889	-0.1253	88.603
122.245	949.52	-2.3892	-0.1253	88.615
122.287	949.52	-2.3895	-0.1253	88.630
122.328	949.52	-2.3898	-0.1253	88.644
122.370	949.53	-2.3901	-0.1253	88.659
122.412	949.53	-2.3904	-0.1253	88.677
122.453	949.53	-2.3906	-0.1254	88.691
122.495	949.53	-2.3909	-0.1254	88.702
122.537	949.53	-2.3913	-0.1254	88.715
122.578	949.53	-2.3917	-0.1254	88.728
122.620	949.53	-2.3921	-0.1254	88.742
122.662	949.53	-2.3925	-0.1255	88.758
122.703	949.53	-2.3928	-0.1255	88.773
122.745	949.53	-2.3932	-0.1255	88.788
122.787	949.53	-2.3935	-0.1255	88.806
122.828	949.53	-2.3938	-0.1255	88.824
122.870	949.53	-2.3942	-0.1255	88.842
122.912	949.53	-2.3945	-0.1256	88.858
122.953	949.53	-2.3948	-0.1256	88.868
122.995	949.53	-2.3952	-0.1256	88.877
123.037	949.53	-2.3956	-0.1256	88.888
123.078	949.54	-2.3960	-0.1256	88.897
123.120	949.54	-2.3964	-0.1257	88.906
123.162		-2.3966	-0.1257
123.195		-2.3968	-0.1257