File: PSO Kinetics/data/softwood-10Kmin_3.txt
Filename	softwood-10Kmin_3
Instrument name	0650-0369 (192.168.1.2)
Operator	ca527
rundate	1/9/2023
Sample name	softwood-10Kmin_3
proceduresegments	Select Gas: Gas 1 ; Ramp 10.00 °C/min to 110.00 °C; Isothermal 30.0 min; Ramp 10.00 °C/min to 900.00 °C; Isothermal 30.0 min; Select Gas: Gas 2 ; Ramp 10.00 °C/min to 950.00 °C; Isothermal 10.0 min; Data Off ; Equilibrate 30.00 °C
[step]
Ramp 10.00 °C/min to 110.00 °C
Time	Temperature	Weight	Weight	Heat Flow
min	°C	%	mg	mW
0.003		100.0118	3.6558
0.037		100.0703	3.6580
0.070	22.80	100.0796	3.6583	-27.322
0.103	22.93	100.0719	3.6580	-27.268
0.137	23.06	100.0612	3.6576	-27.226
0.170	23.19	100.0493	3.6572	-27.185
0.203	23.32	100.0367	3.6567	-27.145
0.237	23.44	100.0234	3.6562	-27.104
0.270	23.56	100.0092	3.6557	-27.062
0.303	23.69	99.9937	3.6552	-27.023
0.337	23.81	99.9768	3.6545	-26.986
0.370	23.94	99.9585	3.6539	-26.947
0.403	24.06	99.9388	3.6532	-26.904
0.437	24.19	99.9177	3.6524	-26.869
0.470	24.32	99.8947	3.6515	-26.841
0.503	24.46	99.8698	3.6506	-26.820
0.537	24.60	99.8430	3.6497	-26.805
0.570	24.75	99.8149	3.6486	-26.796
0.603	24.90	99.7857	3.6476	-26.791
0.637	25.06	99.7563	3.6465	-26.788
0.670	25.23	99.7268	3.6454	-26.789
0.703	25.40	99.6976	3.6443	-26.791
0.737	25.58	99.6690	3.6433	-26.794
0.770	25.76	99.6412	3.6423	-26.799
0.803	25.96	99.6144	3.6413	-26.804
0.837	26.16	99.5885	3.6403	-26.809
0.870	26.37	99.5635	3.6394	-26.812
0.903	26.58	99.5394	3.6386	-26.812
0.937	26.81	99.5162	3.6377	-26.805
0.970	27.04	99.4938	3.6369	-26.788
1.003	27.27	99.4720	3.6361	-26.758
1.037	27.52	99.4506	3.6353	-26.710
1.070	27.77	99.4295	3.6345	-26.654
1.103	28.03	99.4084	3.6338	-26.587
1.137	28.30	99.3873	3.6330	-26.513
1.170	28.57	99.3661	3.6322	-26.434
1.203	28.85	99.3448	3.6314	-26.347
1.237	29.14	99.3232	3.6307	-26.255
1.270	29.43	99.3014	3.6299	-26.155
1.303	29.73	99.2795	3.6291	-26.050
1.337	30.03	99.2574	3.6282	-25.936
1.370	30.34	99.2349	3.6274	-25.813
1.403	30.66	99.2122	3.6266	-25.684
1.437	30.98	99.1891	3.6257	-25.550
1.470	31.30	99.1657	3.6249	-25.413
1.503	31.63	99.1419	3.6240	-25.268
1.537	31.96	99.1179	3.6231	-25.116
1.570	32.30	99.0938	3.6223	-24.959
1.603	32.64	99.0694	3.6214	-24.796
1.637	32.98	99.0446	3.6205	-24.629
1.670	33.33	99.0195	3.6196	-24.460
1.703	33.68	98.9944	3.6186	-24.288
1.737	34.03	98.9690	3.6177	-24.109
1.770	34.39	98.9435	3.6168	-23.928
1.803	34.74	98.9178	3.6158	-23.745
1.837	35.10	98.8919	3.6149	-23.555
1.870	35.46	98.8658	3.6139	-23.360
1.903	35.83	98.8396	3.6130	-23.160
1.937	36.19	98.8131	3.6120	-22.961
1.970	36.56	98.7864	3.6110	-22.755
2.003	36.93	98.7595	3.6100	-22.546
2.037	37.30	98.7324	3.6091	-22.332
2.070	37.67	98.7052	3.6081	-22.115
2.103	38.04	98.6777	3.6071	-21.900
2.137	38.41	98.6501	3.6060	-21.682
2.170	38.78	98.6223	3.6050	-21.459
2.203	39.15	98.5943	3.6040	-21.231
2.237	39.52	98.5659	3.6030	-21.007
2.270	39.90	98.5374	3.6019	-20.777
2.303	40.27	98.5087	3.6009	-20.545
2.337	40.64	98.4798	3.5998	-20.311
2.370	41.02	98.4506	3.5988	-20.078
2.403	41.39	98.4213	3.5977	-19.845
2.437	41.76	98.3917	3.5966	-19.606
2.470	42.13	98.3618	3.5955	-19.370
2.503	42.50	98.3318	3.5944	-19.136
2.537	42.87	98.3017	3.5933	-18.902
2.570	43.25	98.2713	3.5922	-18.664
2.603	43.61	98.2408	3.5911	-18.422
2.637	43.98	98.2101	3.5900	-18.184
2.670	44.35	98.1792	3.5888	-17.946
2.703	44.72	98.1482	3.5877	-17.707
2.737	45.08	98.1171	3.5866	-17.467
2.770	45.45	98.0857	3.5854	-17.227
2.803	45.82	98.0540	3.5843	-16.987
2.837	46.18	98.0222	3.5831	-16.746
2.870	46.54	97.9904	3.5819	-16.509
2.903	46.90	97.9584	3.5808	-16.273
2.937	47.26	97.9263	3.5796	-16.037
2.970	47.62	97.8941	3.5784	-15.802
3.003	47.98	97.8617	3.5772	-15.565
3.037	48.34	97.8292	3.5760	-15.331
3.070	48.70	97.7966	3.5748	-15.098
3.103	49.05	97.7640	3.5737	-14.868
3.137	49.41	97.7314	3.5725	-14.637
3.170	49.76	97.6988	3.5713	-14.407
3.203	50.12	97.6663	3.5701	-14.178
3.237	50.47	97.6337	3.5689	-13.951
3.270	50.82	97.6011	3.5677	-13.723
3.303	51.17	97.5684	3.5665	-13.499
3.337	51.52	97.5358	3.5653	-13.275
3.370	51.87	97.5031	3.5641	-13.055
3.403	52.22	97.4704	3.5629	-12.836
3.437	52.57	97.4377	3.5617	-12.616
3.470	52.92	97.4052	3.5605	-12.398
3.503	53.27	97.3727	3.5594	-12.182
3.537	53.61	97.3404	3.5582	-11.969
3.570	53.96	97.3082	3.5570	-11.755
3.603	54.30	97.2760	3.5558	-11.540
3.637	54.65	97.2438	3.5546	-11.328
3.670	54.99	97.2118	3.5535	-11.120
3.703	55.34	97.1799	3.5523	-10.914
3.737	55.68	97.1482	3.5511	-10.707
3.770	56.02	97.1167	3.5500	-10.500
3.803	56.37	97.0854	3.5488	-10.296
3.837	56.71	97.0541	3.5477	-10.094
3.870	57.05	97.0229	3.5466	-9.894
3.903	57.39	96.9920	3.5454	-9.695
3.937	57.73	96.9614	3.5443	-9.501
3.970	58.07	96.9312	3.5432	-9.309
4.003	58.42	96.9011	3.5421	-9.119
4.037	58.76	96.8712	3.5410	-8.926
4.070	59.10	96.8416	3.5399	-8.733
4.103	59.44	96.8124	3.5389	-8.544
4.137	59.78	96.7833	3.5378	-8.357
4.170	60.12	96.7545	3.5368	-8.175
4.203	60.46	96.7260	3.5357	-7.994
4.237	60.80	96.6978	3.5347	-7.813
4.270	61.14	96.6699	3.5337	-7.630
4.303	61.48	96.6421	3.5326	-7.445
4.337	61.82	96.6145	3.5316	-7.265
4.370	62.16	96.5873	3.5306	-7.089
4.403	62.50	96.5603	3.5297	-6.917
4.437	62.84	96.5337	3.5287	-6.743
4.470	63.18	96.5074	3.5277	-6.568
4.503	63.53	96.4816	3.5268	-6.394
4.537	63.87	96.4563	3.5259	-6.224
4.570	64.21	96.4313	3.5249	-6.055
4.603	64.55	96.4066	3.5240	-5.886
4.637	64.89	96.3823	3.5231	-5.722
4.670	65.23	96.3581	3.5223	-5.557
4.703	65.57	96.3342	3.5214	-5.394
4.737	65.91	96.3107	3.5205	-5.231
4.770	66.25	96.2876	3.5197	-5.071
4.803	66.59	96.2648	3.5189	-4.916
4.837	66.94	96.2423	3.5180	-4.763
4.870	67.28	96.2203	3.5172	-4.611
4.903	67.62	96.1985	3.5164	-4.458
4.937	67.96	96.1771	3.5156	-4.305
4.970	68.31	96.1560	3.5149	-4.153
5.003	68.65	96.1354	3.5141	-4.002
5.037	68.99	96.1151	3.5134	-3.852
5.070	69.33	96.0953	3.5127	-3.706
5.103	69.68	96.0757	3.5119	-3.563
5.137	70.02	96.0565	3.5112	-3.422
5.170	70.36	96.0378	3.5106	-3.281
5.203	70.71	96.0194	3.5099	-3.139
5.237	71.05	96.0011	3.5092	-3.000
5.270	71.39	95.9833	3.5086	-2.862
5.303	71.74	95.9659	3.5079	-2.721
5.337	72.08	95.9488	3.5073	-2.587
5.370	72.42	95.9320	3.5067	-2.452
5.403	72.77	95.9157	3.5061	-2.320
5.437	73.11	95.8997	3.5055	-2.191
5.470	73.46	95.8841	3.5049	-2.062
5.503	73.80	95.8688	3.5044	-1.934
5.537	74.15	95.8537	3.5038	-1.804
5.570	74.50	95.8389	3.5033	-1.677
5.603	74.84	95.8245	3.5028	-1.554
5.637	75.19	95.8103	3.5022	-1.432
5.670	75.53	95.7964	3.5017	-1.312
5.703	75.88	95.7828	3.5012	-1.193
5.737	76.22	95.7694	3.5007	-1.073
5.770	76.57	95.7565	3.5003	-0.955
5.803	76.92	95.7438	3.4998	-0.843
5.837	77.26	95.7314	3.4994	-0.730
5.870	77.61	95.7193	3.4989	-0.618
5.903	77.95	95.7075	3.4985	-0.503
5.937	78.30	95.6960	3.4981	-0.391
5.970	78.65	95.6849	3.4977	-0.283
6.003	78.99	95.6740	3.4973	-0.179
6.037	79.34	95.6635	3.4969	-0.073
6.070	79.69	95.6532	3.4965	0.031
6.103	80.03	95.6431	3.4961	0.132
6.137	80.38	95.6332	3.4958	0.234
6.170	80.72	95.6236	3.4954	0.338
6.203	81.07	95.6143	3.4951	0.438
6.237	81.42	95.6053	3.4947	0.533
6.270	81.76	95.5965	3.4944	0.630
6.303	82.11	95.5880	3.4941	0.724
6.337	82.46	95.5797	3.4938	0.817
6.370	82.80	95.5715	3.4935	0.908
6.403	83.15	95.5635	3.4932	1.000
6.437	83.50	95.5558	3.4929	1.093
6.470	83.84	95.5483	3.4927	1.185
6.503	84.19	95.5412	3.4924	1.276
6.537	84.54	95.5344	3.4922	1.360
6.570	84.89	95.5277	3.4919	1.446
6.603	85.23	95.5211	3.4917	1.533
6.637	85.58	95.5146	3.4914	1.620
6.670	85.93	95.5083	3.4912	1.702
6.703	86.27	95.5024	3.4910	1.778
6.737	86.62	95.4968	3.4908	1.850
6.770	86.96	95.4914	3.4906	1.924
6.803	87.31	95.4861	3.4904	1.999
6.837	87.66	95.4811	3.4902	2.072
6.870	88.00	95.4760	3.4900	2.148
6.903	88.35	95.4710	3.4898	2.221
6.937	88.70	95.4661	3.4897	2.291
6.970	89.04	95.4614	3.4895	2.359
7.003	89.39	95.4569	3.4893	2.426
7.037	89.73	95.4527	3.4892	2.492
7.070	90.08	95.4487	3.4890	2.560
7.103	90.43	95.4448	3.4889	2.629
7.137	90.77	95.4408	3.4887	2.689
7.170	91.12	95.4370	3.4886	2.747
7.203	91.46	95.4333	3.4885	2.808
7.237	91.81	95.4299	3.4883	2.869
7.270	92.15	95.4266	3.4882	2.928
7.303	92.50	95.4234	3.4881	2.985
7.337	92.84	95.4202	3.4880	3.035
7.370	93.19	95.4172	3.4879	3.083
7.403	93.53	95.4142	3.4878	3.134
7.437	93.88	95.4114	3.4877	3.191
7.470	94.22	95.4088	3.4876	3.244
7.503	94.57	95.4062	3.4875	3.292
7.537	94.91	95.4038	3.4874	3.340
7.570	95.25	95.4013	3.4873	3.385
7.603	95.60	95.3989	3.4872	3.436
7.637	95.94	95.3966	3.4871	3.482
7.670	96.29	95.3944	3.4870	3.525
7.703	96.63	95.3922	3.4870	3.569
7.737	96.98	95.3900	3.4869	3.612
7.770	97.32	95.3878	3.4868	3.651
7.803	97.67	95.3858	3.4867	3.684
7.837	98.01	95.3839	3.4867	3.718
7.870	98.35	95.3820	3.4866	3.756
7.903	98.70	95.3802	3.4865	3.793
7.937	99.04	95.3785	3.4865	3.825
7.970	99.38	95.3769	3.4864	3.859
8.003	99.73	95.3753	3.4863	3.891
8.037	100.07	95.3738	3.4863	3.924
8.070	100.42	95.3722	3.4862	3.951
8.103	100.76	95.3707	3.4862	3.976
8.137	101.10	95.3692	3.4861	4.001
8.170	101.44	95.3677	3.4861	4.030
8.203	101.79	95.3662	3.4860	4.061
8.237	102.13	95.3648	3.4860	4.088
8.270	102.47	95.3634	3.4859	4.111
8.303	102.82	95.3621	3.4859	4.132
8.337	103.16	95.3608	3.4858	4.154
8.370	103.50	95.3596	3.4858	4.178
8.403	103.85	95.3584	3.4857	4.199
8.437	104.19	95.3572	3.4857	4.221
8.470	104.53	95.3560	3.4856	4.240
8.503	104.88	95.3548	3.4856	4.254
8.537	105.22	95.3536	3.4855	4.267
8.570	105.56	95.3524	3.4855	4.284
8.603	105.91	95.3513	3.4855	4.304
8.628	106.16	95.3506	3.4854	4.319

[step]
Isothermal 30.0 min
Time	Temperature	Weight	Weight	Heat Flow
min	°C	%	mg	mW
8.637	106.25	95.3503	3.4854	4.323
8.745	107.36	95.3469	3.4853	4.374
8.853	108.44	95.3438	3.4852	4.493
8.962	109.45	95.3400	3.4850	4.726
9.070	110.37	95.3362	3.4849	5.065
9.178	111.17	95.3320	3.4848	5.501
9.287	111.86	95.3276	3.4846	6.032
9.395	112.43	95.3228	3.4844	6.633
9.503	112.86	95.3187	3.4843	7.312
9.612	113.17	95.3141	3.4841	8.003
9.720	113.36	95.3094	3.4839	8.692
9.828	113.46	95.3047	3.4838	9.350
9.937	113.47	95.3000	3.4836	9.960
10.045	113.41	95.2950	3.4834	10.518
10.153	113.31	95.2898	3.4832	10.992
10.262	113.17	95.2855	3.4831	11.373
10.370	113.03	95.2821	3.4829	11.672
10.478	112.87	95.2791	3.4828	11.897
10.587	112.72	95.2758	3.4827	12.058
10.695	112.58	95.2733	3.4826	12.185
10.803	112.45	95.2713	3.4825	12.248
10.912	112.33	95.2690	3.4825	12.287
11.020	112.24	95.2669	3.4824	12.306
11.128	112.16	95.2651	3.4823	12.309
11.237	112.11	95.2635	3.4823	12.290
11.345	112.08	95.2623	3.4822	12.245
11.453	112.06	95.2615	3.4822	12.176
11.562	112.07	95.2608	3.4822	12.102
11.670	112.10	95.2597	3.4821	12.039
11.778	112.14	95.2586	3.4821	11.968
11.887	112.19	95.2577	3.4820	11.905
11.995	112.25	95.2568	3.4820	11.851
12.103	112.32	95.2560	3.4820	11.808
12.212	112.39	95.2552	3.4819	11.771
12.320	112.47	95.2543	3.4819	11.740
12.428	112.55	95.2532	3.4819	11.709
12.537	112.62	95.2522	3.4818	11.689
12.645	112.70	95.2514	3.4818	11.678
12.753	112.77	95.2505	3.4818	11.674
12.862	112.83	95.2489	3.4817	11.675
12.970	112.90	95.2479	3.4817	11.678
13.078	112.95	95.2466	3.4816	11.692
13.187	113.00	95.2456	3.4816	11.709
13.295	113.04	95.2442	3.4815	11.728
13.403	113.08	95.2434	3.4815	11.751
13.512	113.11	95.2419	3.4815	11.775
13.620	113.14	95.2409	3.4814	11.800
13.728	113.16	95.2396	3.4814	11.829
13.837	113.17	95.2385	3.4813	11.855
13.945	113.19	95.2376	3.4813	11.875
14.053	113.19	95.2363	3.4813	11.896
14.162	113.20	95.2350	3.4812	11.918
14.270	113.21	95.2342	3.4812	11.933
14.378	113.21	95.2331	3.4811	11.946
14.487	113.21	95.2321	3.4811	11.957
14.595	113.21	95.2311	3.4811	11.968
14.703	113.21	95.2299	3.4810	11.976
14.812	113.21	95.2287	3.4810	11.980
14.920	113.21	95.2280	3.4810	11.982
15.028	113.22	95.2272	3.4809	11.982
15.137	113.22	95.2260	3.4809	11.980
15.245	113.22	95.2252	3.4809	11.975
15.353	113.23	95.2246	3.4808	11.972
15.462	113.23	95.2236	3.4808	11.968
15.570	113.24	95.2226	3.4808	11.962
15.678	113.24	95.2217	3.4807	11.956
15.787	113.25	95.2209	3.4807	11.944
15.895	113.26	95.2202	3.4807	11.936
16.003	113.27	95.2196	3.4806	11.930
16.112	113.27	95.2188	3.4806	11.926
16.220	113.28	95.2177	3.4806	11.919
16.328	113.29	95.2171	3.4806	11.913
16.437	113.29	95.2162	3.4805	11.905
16.545	113.30	95.2149	3.4805	11.897
16.653	113.31	95.2141	3.4804	11.892
16.762	113.32	95.2133	3.4804	11.885
16.870	113.32	95.2129	3.4804	11.879
16.978	113.33	95.2122	3.4804	11.876
17.087	113.33	95.2113	3.4803	11.872
17.195	113.34	95.2104	3.4803	11.865
17.303	113.34	95.2098	3.4803	11.860
17.412	113.34	95.2087	3.4802	11.855
17.520	113.35	95.2077	3.4802	11.850
17.628	113.35	95.2071	3.4802	11.848
17.737	113.35	95.2064	3.4802	11.844
17.845	113.35	95.2059	3.4801	11.839
17.953	113.36	95.2055	3.4801	11.831
18.062	113.36	95.2050	3.4801	11.827
18.170	113.36	95.2043	3.4801	11.820
18.278	113.36	95.2040	3.4801	11.818
18.387	113.36	95.2032	3.4800	11.815
18.495	113.36	95.2022	3.4800	11.812
18.603	113.36	95.2009	3.4800	11.811
18.712	113.36	95.2002	3.4799	11.806
18.820	113.36	95.1995	3.4799	11.801
18.928	113.36	95.1989	3.4799	11.797
19.037	113.36	95.1982	3.4799	11.792
19.145	113.36	95.1977	3.4798	11.784
19.253	113.36	95.1973	3.4798	11.779
19.362	113.36	95.1966	3.4798	11.775
19.470	113.36	95.1955	3.4798	11.769
19.578	113.37	95.1947	3.4797	11.763
19.687	113.37	95.1941	3.4797	11.758
19.795	113.37	95.1937	3.4797	11.751
19.903	113.37	95.1928	3.4797	11.745
20.012	113.37	95.1919	3.4796	11.743
20.120	113.37	95.1915	3.4796	11.738
20.228	113.37	95.1909	3.4796	11.725
20.337	113.37	95.1905	3.4796	11.718
20.445	113.37	95.1896	3.4796	11.715
20.553	113.37	95.1887	3.4795	11.710
20.662	113.37	95.1883	3.4795	11.700
20.770	113.37	95.1874	3.4795	11.694
20.878	113.37	95.1868	3.4794	11.689
20.987	113.37	95.1862	3.4794	11.686
21.095	113.37	95.1855	3.4794	11.683
21.203	113.37	95.1848	3.4794	11.678
21.312	113.37	95.1841	3.4794	11.673
21.420	113.36	95.1833	3.4793	11.668
21.528	113.36	95.1830	3.4793	11.662
21.637	113.36	95.1827	3.4793	11.654
21.745	113.36	95.1822	3.4793	11.647
21.853	113.37	95.1815	3.4793	11.641
21.962	113.36	95.1811	3.4792	11.634
22.070	113.36	95.1801	3.4792	11.628
22.178	113.36	95.1796	3.4792	11.624
22.287	113.36	95.1796	3.4792	11.617
22.395	113.36	95.1794	3.4792	11.613
22.503	113.36	95.1789	3.4792	11.609
22.612	113.36	95.1782	3.4791	11.604
22.720	113.36	95.1776	3.4791	11.599
22.828	113.36	95.1772	3.4791	11.591
22.937	113.36	95.1764	3.4791	11.585
23.045	113.36	95.1759	3.4790	11.579
23.153	113.36	95.1753	3.4790	11.572
23.262	113.36	95.1745	3.4790	11.570
23.370	113.36	95.1739	3.4790	11.567
23.478	113.36	95.1735	3.4790	11.561
23.587	113.36	95.1728	3.4789	11.556
23.695	113.36	95.1723	3.4789	11.549
23.803	113.36	95.1717	3.4789	11.545
23.912	113.36	95.1710	3.4789	11.539
24.020	113.35	95.1709	3.4789	11.532
24.128	113.35	95.1700	3.4788	11.531
24.237	113.35	95.1699	3.4788	11.525
24.345	113.35	95.1693	3.4788	11.522
24.453	113.35	95.1690	3.4788	11.513
24.562	113.35	95.1685	3.4788	11.506
24.670	113.35	95.1680	3.4788	11.502
24.778	113.35	95.1678	3.4788	11.497
24.887	113.35	95.1674	3.4787	11.490
24.995	113.35	95.1672	3.4787	11.486
25.103	113.35	95.1668	3.4787	11.479
25.212	113.35	95.1662	3.4787	11.475
25.320	113.35	95.1656	3.4787	11.468
25.428	113.34	95.1651	3.4787	11.462
25.537	113.34	95.1646	3.4786	11.453
25.645	113.34	95.1639	3.4786	11.448
25.753	113.34	95.1631	3.4786	11.443
25.862	113.34	95.1625	3.4786	11.438
25.970	113.34	95.1621	3.4785	11.436
26.078	113.34	95.1611	3.4785	11.428
26.187	113.34	95.1603	3.4785	11.425
26.295	113.34	95.1601	3.4785	11.424
26.403	113.34	95.1598	3.4785	11.419
26.512	113.34	95.1594	3.4784	11.413
26.620	113.34	95.1591	3.4784	11.410
26.728	113.34	95.1587	3.4784	11.404
26.837	113.34	95.1581	3.4784	11.399
26.945	113.34	95.1576	3.4784	11.392
27.053	113.34	95.1570	3.4784	11.389
27.162	113.34	95.1567	3.4784	11.385
27.270	113.34	95.1562	3.4783	11.380
27.378	113.34	95.1558	3.4783	11.377
27.487	113.34	95.1549	3.4783	11.373
27.595	113.33	95.1549	3.4783	11.367
27.703	113.33	95.1550	3.4783	11.362
27.812	113.33	95.1545	3.4783	11.358
27.920	113.33	95.1542	3.4783	11.352
28.028	113.33	95.1534	3.4782	11.347
28.137	113.33	95.1530	3.4782	11.346
28.245	113.33	95.1524	3.4782	11.343
28.353	113.33	95.1524	3.4782	11.343
28.462	113.33	95.1522	3.4782	11.341
28.570	113.33	95.1514	3.4782	11.335
28.678	113.33	95.1507	3.4781	11.330
28.787	113.33	95.1503	3.4781	11.327
28.895	113.33	95.1494	3.4781	11.325
29.003	113.33	95.1487	3.4781	11.322
29.112	113.33	95.1485	3.4780	11.317
29.220	113.33	95.1478	3.4780	11.314
29.328	113.33	95.1475	3.4780	11.308
29.437	113.33	95.1471	3.4780	11.304
29.545	113.33	95.1469	3.4780	11.301
29.653	113.33	95.1466	3.4780	11.297
29.762	113.33	95.1464	3.4780	11.291
29.870	113.32	95.1464	3.4780	11.285
29.978	113.32	95.1458	3.4780	11.282
30.087	113.32	95.1454	3.4779	11.275
30.195	113.32	95.1448	3.4779	11.271
30.303	113.32	95.1445	3.4779	11.267
30.412	113.32	95.1441	3.4779	11.261
30.520	113.32	95.1437	3.4779	11.257
30.628	113.32	95.1431	3.4779	11.252
30.737	113.32	95.1430	3.4778	11.247
30.845	113.32	95.1425	3.4778	11.247
30.953	113.32	95.1419	3.4778	11.245
31.062	113.32	95.1416	3.4778	11.243
31.170	113.32	95.1414	3.4778	11.241
31.278	113.32	95.1411	3.4778	11.234
31.387	113.32	95.1404	3.4778	11.232
31.495	113.32	95.1402	3.4777	11.224
31.603	113.32	95.1397	3.4777	11.219
31.712	113.32	95.1398	3.4777	11.215
31.820	113.32	95.1392	3.4777	11.211
31.928	113.31	95.1389	3.4777	11.206
32.037	113.31	95.1389	3.4777	11.200
32.145	113.31	95.1387	3.4777	11.196
32.253	113.31	95.1382	3.4777	11.195
32.362	113.31	95.1378	3.4777	11.191
[...]
153.187	947.90	-3.4461	-0.1260	58.105
153.228	947.97	-3.4511	-0.1262	59.148
153.270	948.03	-3.4555	-0.1263	60.156
153.312	948.08	-3.4592	-0.1264	61.135
153.353	948.12	-3.4626	-0.1266	62.083
153.395	948.15	-3.4657	-0.1267	62.994
153.437	948.18	-3.4685	-0.1268	63.865
153.478	948.20	-3.4709	-0.1269	64.693
153.520	948.23	-3.4731	-0.1270	65.484
153.562	948.25	-3.4751	-0.1270	66.253
153.603	948.27	-3.4771	-0.1271	66.989
153.645	948.29	-3.4792	-0.1272	67.685
153.687	948.31	-3.4812	-0.1273	68.339
153.728	948.33	-3.4831	-0.1273	68.952
153.770	948.35	-3.4847	-0.1274	69.545
153.812	948.37	-3.4862	-0.1274	70.110
153.853	948.40	-3.4877	-0.1275	70.645
153.895	948.42	-3.4893	-0.1275	71.176
153.937	948.44	-3.4908	-0.1276	71.685
153.978	948.47	-3.4922	-0.1277	72.169
154.020	948.49	-3.4936	-0.1277	72.651
154.062	948.52	-3.4948	-0.1277	73.123
154.103	948.55	-3.4962	-0.1278	73.582
154.145	948.57	-3.4975	-0.1278	74.032
154.187	948.60	-3.4988	-0.1279	74.475
154.228	948.62	-3.5001	-0.1279	74.901
154.270	948.65	-3.5014	-0.1280	75.321
154.312	948.67	-3.5026	-0.1280	75.739
154.353	948.69	-3.5036	-0.1281	76.153
154.395	948.72	-3.5050	-0.1281	76.564
154.437	948.74	-3.5065	-0.1282	76.963
154.478	948.76	-3.5080	-0.1282	77.354
154.520	948.78	-3.5095	-0.1283	77.737
154.562	948.80	-3.5111	-0.1283	78.108
154.603	948.82	-3.5127	-0.1284	78.461
154.645	948.85	-3.5145	-0.1285	78.800
154.687	948.87	-3.5164	-0.1285	79.131
154.728	948.89	-3.5184	-0.1286	79.459
154.770	948.90	-3.5204	-0.1287	79.788
154.812	948.92	-3.5223	-0.1288	80.102
154.853	948.94	-3.5242	-0.1288	80.407
154.895	948.96	-3.5262	-0.1289	80.718
154.937	948.97	-3.5283	-0.1290	81.028
154.978	948.99	-3.5301	-0.1290	81.329
155.020	949.00	-3.5318	-0.1291	81.630
155.062	949.02	-3.5336	-0.1292	81.916
155.103	949.03	-3.5351	-0.1292	82.197
155.145	949.05	-3.5364	-0.1293	82.479
155.187	949.06	-3.5378	-0.1293	82.748
155.228	949.08	-3.5392	-0.1294	83.007
155.270	949.09	-3.5406	-0.1294	83.253
155.312	949.10	-3.5419	-0.1295	83.495
155.353	949.11	-3.5432	-0.1295	83.731
155.395	949.13	-3.5444	-0.1296	83.962
155.437	949.14	-3.5455	-0.1296	84.190
155.478	949.15	-3.5465	-0.1296	84.407
155.520	949.16	-3.5478	-0.1297	84.626
155.562	949.17	-3.5491	-0.1297	84.851
155.603	949.18	-3.5503	-0.1298	85.065
155.645	949.19	-3.5513	-0.1298	85.269
155.687	949.21	-3.5523	-0.1299	85.475
155.728	949.22	-3.5534	-0.1299	85.671
155.770	949.23	-3.5545	-0.1299	85.849
155.812	949.24	-3.5556	-0.1300	86.013
155.853	949.25	-3.5566	-0.1300	86.181
155.895	949.25	-3.5575	-0.1300	86.347
155.937	949.26	-3.5587	-0.1301	86.514
155.978	949.27	-3.5599	-0.1301	86.690
156.020	949.28	-3.5610	-0.1302	86.863
156.062	949.29	-3.5620	-0.1302	87.031
156.103	949.30	-3.5630	-0.1302	87.193
156.145	949.31	-3.5639	-0.1303	87.355
156.187	949.31	-3.5647	-0.1303	87.508
156.228	949.32	-3.5654	-0.1303	87.657
156.270	949.33	-3.5662	-0.1304	87.809
156.312	949.34	-3.5670	-0.1304	87.956
156.353	949.34	-3.5676	-0.1304	88.106
156.395	949.35	-3.5683	-0.1304	88.255
156.437	949.36	-3.5687	-0.1304	88.383
156.478	949.36	-3.5692	-0.1305	88.509
156.520	949.37	-3.5699	-0.1305	88.639
156.562	949.38	-3.5705	-0.1305	88.773
156.603	949.38	-3.5712	-0.1305	88.883
156.645	949.39	-3.5721	-0.1306	88.981
156.687	949.39	-3.5729	-0.1306	89.101
156.728	949.40	-3.5738	-0.1306	89.220
156.770	949.41	-3.5745	-0.1307	89.335
156.812	949.41	-3.5754	-0.1307	89.448
156.853	949.42	-3.5762	-0.1307	89.554
156.895	949.42	-3.5767	-0.1307	89.648
156.937	949.43	-3.5773	-0.1308	89.742
156.978	949.43	-3.5780	-0.1308	89.851
157.020	949.44	-3.5786	-0.1308	89.954
157.062	949.44	-3.5793	-0.1308	90.048
157.103	949.45	-3.5800	-0.1309	90.141
157.145	949.45	-3.5807	-0.1309	90.241
157.187	949.46	-3.5814	-0.1309	90.331
157.228	949.46	-3.5822	-0.1309	90.395
157.270	949.47	-3.5831	-0.1310	90.461
157.312	949.47	-3.5839	-0.1310	90.539
157.353	949.48	-3.5846	-0.1310	90.638
157.395	949.48	-3.5854	-0.1311	90.742
157.437	949.48	-3.5863	-0.1311	90.824
157.478	949.49	-3.5870	-0.1311	90.892
157.520	949.49	-3.5878	-0.1311	90.956
157.562	949.50	-3.5887	-0.1312	91.025
157.603	949.50	-3.5895	-0.1312	91.103
157.645	949.50	-3.5904	-0.1312	91.184
157.687	949.51	-3.5912	-0.1313	91.263
157.728	949.51	-3.5921	-0.1313	91.347
157.770	949.51	-3.5929	-0.1313	91.430
157.812	949.52	-3.5937	-0.1314	91.514
157.853	949.52	-3.5943	-0.1314	91.584
157.895	949.52	-3.5947	-0.1314	91.652
157.937	949.53	-3.5951	-0.1314	91.716
157.978	949.53	-3.5957	-0.1314	91.766
158.020	949.53	-3.5962	-0.1315	91.823
158.062	949.54	-3.5968	-0.1315	91.879
158.103	949.54	-3.5971	-0.1315	91.929
158.145	949.54	-3.5975	-0.1315	91.980
158.187	949.55	-3.5979	-0.1315	92.031
158.228	949.55	-3.5982	-0.1315	92.085
158.270	949.55	-3.5986	-0.1315	92.142
158.312	949.55	-3.5991	-0.1316	92.198
158.353	949.56	-3.5996	-0.1316	92.249
158.395	949.56	-3.6000	-0.1316	92.301
158.437	949.56	-3.6005	-0.1316	92.356
158.478	949.57	-3.6010	-0.1316	92.401
158.520	949.57	-3.6013	-0.1316	92.440
158.562	949.57	-3.6014	-0.1316	92.482
158.603	949.57	-3.6017	-0.1317	92.532
158.645	949.57	-3.6019	-0.1317	92.584
158.687	949.58	-3.6021	-0.1317	92.641
158.728	949.58	-3.6025	-0.1317	92.705
158.770	949.58	-3.6030	-0.1317	92.760
158.812	949.58	-3.6033	-0.1317	92.807
158.853	949.58	-3.6036	-0.1317	92.854
158.895	949.59	-3.6038	-0.1317	92.898
158.937	949.59	-3.6040	-0.1317	92.942
158.978	949.59	-3.6042	-0.1317	92.988
159.020	949.59	-3.6044	-0.1318	93.029
159.062	949.59	-3.6047	-0.1318	93.067
159.103	949.60	-3.6049	-0.1318	93.104
159.145	949.60	-3.6053	-0.1318	93.148
159.187	949.60	-3.6057	-0.1318	93.194
159.228	949.60	-3.6061	-0.1318	93.240
159.270	949.61	-3.6064	-0.1318	93.279
159.312	949.61	-3.6067	-0.1318	93.305
159.353	949.61	-3.6068	-0.1318	93.328
159.395	949.61	-3.6069	-0.1318	93.352
159.437	949.61	-3.6072	-0.1319	93.383
159.478	949.62	-3.6074	-0.1319	93.415
159.520	949.62	-3.6077	-0.1319	93.448
159.562	949.62	-3.6078	-0.1319	93.490
159.603	949.62	-3.6079	-0.1319	93.534
159.645	949.62	-3.6081	-0.1319	93.572
159.687	949.62	-3.6084	-0.1319	93.609
159.728	949.62	-3.6086	-0.1319	93.653
159.770	949.63	-3.6088	-0.1319	93.700
159.812	949.63	-3.6090	-0.1319	93.737
159.853	949.63	-3.6092	-0.1319	93.762
159.895	949.63	-3.6096	-0.1319	93.781
159.937	949.63	-3.6100	-0.1320	93.800
159.978	949.63	-3.6103	-0.1320	93.824
160.020	949.63	-3.6106	-0.1320	93.853
160.062	949.64	-3.6109	-0.1320	93.882
160.103	949.64	-3.6112	-0.1320	93.911
160.145	949.64	-3.6114	-0.1320	93.940
160.187	949.64	-3.6117	-0.1320	93.969
160.228	949.64	-3.6121	-0.1320	93.999
160.270	949.64	-3.6122	-0.1320	94.030
160.312	949.64	-3.6124	-0.1320	94.066
160.353	949.64	-3.6129	-0.1321	94.105
160.395	949.64	-3.6132	-0.1321	94.134
160.437	949.65	-3.6135	-0.1321	94.163
160.478	949.65	-3.6137	-0.1321	94.198
160.520	949.65	-3.6141	-0.1321	94.231
160.562	949.65	-3.6143	-0.1321	94.264
160.603	949.65	-3.6145	-0.1321	94.294
160.645	949.65	-3.6146	-0.1321	94.317
160.687	949.65	-3.6147	-0.1321	94.342
160.728	949.65	-3.6151	-0.1321	94.363
160.770	949.65	-3.6155	-0.1322	94.387
160.812	949.65	-3.6157	-0.1322	94.409
160.853	949.66	-3.6159	-0.1322	94.422
160.895	949.66	-3.6164	-0.1322	94.435
160.937	949.66	-3.6168	-0.1322	94.445
160.978	949.66	-3.6170	-0.1322	94.457
161.020	949.66	-3.6172	-0.1322	94.472
161.062	949.66	-3.6174	-0.1322	94.488
161.103	949.66	-3.6176	-0.1322	94.505
161.145	949.66	-3.6177	-0.1322	94.524
161.187	949.67	-3.6177	-0.1322	94.544
161.228	949.67	-3.6178	-0.1322	94.566
161.270	949.67	-3.6181	-0.1323	94.588
161.312	949.67	-3.6185	-0.1323	94.611
161.353	949.67	-3.6189	-0.1323	94.640
161.395	949.67	-3.6193	-0.1323	94.677
161.437	949.67	-3.6196	-0.1323	94.713
161.478	949.67	-3.6199	-0.1323	94.740
161.520	949.67	-3.6201	-0.1323	94.767
161.562	949.67	-3.6203	-0.1323	94.793
161.603	949.67	-3.6205	-0.1323	94.812
161.645	949.67	-3.6207	-0.1323	94.827
161.687	949.67	-3.6210	-0.1324	94.843
161.728	949.67	-3.6213	-0.1324	94.857
161.770	949.67	-3.6214	-0.1324	94.869
161.812	949.68	-3.6215	-0.1324	94.884
161.853	949.68	-3.6216	-0.1324	94.904
161.895	949.68	-3.6216	-0.1324	94.922
161.937	949.68	-3.6215	-0.1324	94.939
161.978	949.68	-3.6217	-0.1324	94.957
162.020	949.68	-3.6219	-0.1324	94.976
162.062	949.68	-3.6223	-0.1324	94.995
162.103	949.68	-3.6225	-0.1324	95.020
162.145	949.68	-3.6227	-0.1324	95.049
162.187	949.68	-3.6230	-0.1324	95.077
162.228	949.68	-3.6232	-0.1324	95.103
162.270	949.68	-3.6234	-0.1324	95.123
162.312	949.68	-3.6235	-0.1325	95.139
162.353	949.68	-3.6236	-0.1325	95.160
162.395	949.68	-3.6236	-0.1325	95.191
162.437	949.68	-3.6238	-0.1325	95.226
162.478	949.68	-3.6242	-0.1325	95.253
162.520	949.69	-3.6246	-0.1325	95.270
162.562	949.69	-3.6250	-0.1325	95.285
162.603		-3.6254	-0.1325
162.637		-3.6256	-0.1325