File: PSO Kinetics/data/softwood-50Kmin_2.txt
Filename	softwood-50Kmin_2
Instrument name	0650-0369 (192.168.1.2)
Operator	ca527
rundate	1/8/2023
Sample name	softwood-50Kmin_2
proceduresegments	Select Gas: Gas 1 ; Ramp 10.00 °C/min to 110.00 °C; Isothermal 30.0 min; Ramp 50.00 °C/min to 900.00 °C; Isothermal 30.0 min; Select Gas: Gas 2 ; Ramp 10.00 °C/min to 950.00 °C; Isothermal 10.0 min; Data Off ; Equilibrate 30.00 °C
[step]
Ramp 10.00 °C/min to 110.00 °C
Time	Temperature	Weight	Weight	Heat Flow
min	°C	%	mg	mW
0.003		100.0242	4.6566
0.037		100.1733	4.6635
0.070	23.84	100.3052	4.6697	-25.947
0.103	23.97	100.3722	4.6728	-25.861
0.137	24.08	100.3909	4.6736	-25.790
0.170	24.20	100.4037	4.6742	-25.721
0.203	24.32	100.4135	4.6747	-25.658
0.237	24.43	100.4206	4.6750	-25.593
0.270	24.55	100.4250	4.6752	-25.535
0.303	24.66	100.4269	4.6753	-25.481
0.337	24.77	100.4265	4.6753	-25.432
0.370	24.89	100.4241	4.6752	-25.388
0.403	25.01	100.4197	4.6750	-25.345
0.437	25.13	100.4132	4.6747	-25.308
0.470	25.25	100.4047	4.6743	-25.277
0.503	25.39	100.3941	4.6738	-25.252
0.537	25.53	100.3819	4.6732	-25.232
0.570	25.67	100.3683	4.6726	-25.217
0.603	25.82	100.3535	4.6719	-25.207
0.637	25.98	100.3378	4.6712	-25.203
0.670	26.14	100.3216	4.6704	-25.202
0.703	26.31	100.3051	4.6696	-25.201
0.737	26.49	100.2887	4.6689	-25.201
0.770	26.68	100.2727	4.6681	-25.204
0.803	26.88	100.2573	4.6674	-25.207
0.837	27.08	100.2427	4.6667	-25.210
0.870	27.29	100.2289	4.6661	-25.212
0.903	27.51	100.2161	4.6655	-25.211
0.937	27.73	100.2042	4.6650	-25.204
0.970	27.97	100.1931	4.6644	-25.184
1.003	28.21	100.1827	4.6640	-25.145
1.037	28.46	100.1729	4.6635	-25.090
1.070	28.72	100.1636	4.6631	-25.019
1.103	28.98	100.1546	4.6626	-24.937
1.137	29.25	100.1460	4.6622	-24.847
1.170	29.53	100.1373	4.6618	-24.750
1.203	29.82	100.1286	4.6614	-24.635
1.237	30.12	100.1196	4.6610	-24.507
1.270	30.42	100.1103	4.6606	-24.366
1.303	30.72	100.1007	4.6601	-24.216
1.337	31.04	100.0909	4.6597	-24.054
1.370	31.36	100.0807	4.6592	-23.882
1.403	31.68	100.0702	4.6587	-23.701
1.437	32.01	100.0593	4.6582	-23.512
1.470	32.34	100.0480	4.6577	-23.318
1.503	32.68	100.0362	4.6571	-23.115
1.537	33.03	100.0240	4.6566	-22.903
1.570	33.37	100.0116	4.6560	-22.688
1.603	33.72	99.9988	4.6554	-22.465
1.637	34.08	99.9857	4.6548	-22.235
1.670	34.43	99.9722	4.6542	-22.004
1.703	34.79	99.9584	4.6535	-21.763
1.737	35.16	99.9443	4.6529	-21.520
1.770	35.52	99.9300	4.6522	-21.270
1.803	35.89	99.9153	4.6515	-21.020
1.837	36.26	99.9003	4.6508	-20.769
1.870	36.63	99.8849	4.6501	-20.511
1.903	37.01	99.8692	4.6494	-20.247
1.937	37.38	99.8531	4.6486	-19.984
1.970	37.76	99.8369	4.6479	-19.721
2.003	38.13	99.8203	4.6471	-19.458
2.037	38.51	99.8034	4.6463	-19.190
2.070	38.89	99.7861	4.6455	-18.921
2.103	39.27	99.7686	4.6447	-18.648
2.137	39.65	99.7506	4.6438	-18.377
2.170	40.03	99.7323	4.6430	-18.109
2.203	40.41	99.7137	4.6421	-17.838
2.237	40.79	99.6948	4.6412	-17.566
2.270	41.17	99.6757	4.6403	-17.295
2.303	41.55	99.6562	4.6394	-17.023
2.337	41.93	99.6363	4.6385	-16.748
2.370	42.30	99.6160	4.6376	-16.476
2.403	42.68	99.5954	4.6366	-16.203
2.437	43.06	99.5743	4.6356	-15.933
2.470	43.43	99.5530	4.6346	-15.662
2.503	43.81	99.5315	4.6336	-15.394
2.537	44.18	99.5096	4.6326	-15.128
2.570	44.56	99.4874	4.6316	-14.860
2.603	44.93	99.4650	4.6305	-14.595
2.637	45.30	99.4423	4.6295	-14.333
2.670	45.67	99.4194	4.6284	-14.074
2.703	46.04	99.3961	4.6273	-13.814
2.737	46.41	99.3726	4.6262	-13.556
2.770	46.78	99.3488	4.6251	-13.303
2.803	47.15	99.3247	4.6240	-13.050
2.837	47.51	99.3002	4.6229	-12.800
2.870	47.87	99.2754	4.6217	-12.549
2.903	48.24	99.2505	4.6206	-12.300
2.937	48.60	99.2253	4.6194	-12.052
2.970	48.96	99.1998	4.6182	-11.808
3.003	49.32	99.1741	4.6170	-11.566
3.037	49.68	99.1481	4.6158	-11.329
3.070	50.04	99.1218	4.6146	-11.092
3.103	50.39	99.0953	4.6133	-10.857
3.137	50.75	99.0688	4.6121	-10.623
3.170	51.10	99.0420	4.6108	-10.393
3.203	51.45	99.0150	4.6096	-10.164
3.237	51.81	98.9878	4.6083	-9.938
3.270	52.16	98.9604	4.6070	-9.713
3.303	52.51	98.9328	4.6058	-9.491
3.337	52.86	98.9052	4.6045	-9.270
3.370	53.21	98.8775	4.6032	-9.055
3.403	53.56	98.8496	4.6019	-8.841
3.437	53.90	98.8215	4.6006	-8.626
3.470	54.25	98.7933	4.5993	-8.413
3.503	54.60	98.7649	4.5979	-8.205
3.537	54.94	98.7366	4.5966	-8.000
3.570	55.28	98.7082	4.5953	-7.794
3.603	55.63	98.6798	4.5940	-7.586
3.637	55.97	98.6515	4.5927	-7.381
3.670	56.32	98.6232	4.5913	-7.179
3.703	56.66	98.5948	4.5900	-6.984
3.737	57.00	98.5664	4.5887	-6.787
3.770	57.34	98.5381	4.5874	-6.591
3.803	57.68	98.5097	4.5861	-6.398
3.837	58.02	98.4814	4.5847	-6.208
3.870	58.36	98.4531	4.5834	-6.017
3.903	58.71	98.4249	4.5821	-5.827
3.937	59.05	98.3967	4.5808	-5.642
3.970	59.39	98.3687	4.5795	-5.460
4.003	59.73	98.3409	4.5782	-5.279
4.037	60.06	98.3132	4.5769	-5.095
4.070	60.40	98.2856	4.5756	-4.913
4.103	60.74	98.2582	4.5744	-4.730
4.137	61.08	98.2307	4.5731	-4.551
4.170	61.42	98.2035	4.5718	-4.373
4.203	61.76	98.1766	4.5706	-4.193
4.237	62.10	98.1499	4.5693	-4.018
4.270	62.44	98.1233	4.5681	-3.847
4.303	62.78	98.0969	4.5668	-3.675
4.337	63.12	98.0706	4.5656	-3.505
4.370	63.46	98.0447	4.5644	-3.337
4.403	63.80	98.0190	4.5632	-3.167
4.437	64.14	97.9935	4.5620	-3.001
4.470	64.48	97.9683	4.5609	-2.834
4.503	64.82	97.9433	4.5597	-2.669
4.537	65.16	97.9186	4.5585	-2.504
4.570	65.50	97.8940	4.5574	-2.343
4.603	65.84	97.8697	4.5563	-2.183
4.637	66.18	97.8458	4.5552	-2.023
4.670	66.52	97.8221	4.5541	-1.862
4.703	66.86	97.7987	4.5530	-1.704
4.737	67.20	97.7755	4.5519	-1.547
4.770	67.54	97.7525	4.5508	-1.393
4.803	67.88	97.7300	4.5498	-1.241
4.837	68.22	97.7077	4.5487	-1.090
4.870	68.56	97.6858	4.5477	-0.938
4.903	68.91	97.6642	4.5467	-0.786
4.937	69.25	97.6428	4.5457	-0.635
4.970	69.59	97.6217	4.5447	-0.487
5.003	69.93	97.6008	4.5438	-0.342
5.037	70.27	97.5803	4.5428	-0.192
5.070	70.62	97.5600	4.5419	-0.045
5.103	70.96	97.5401	4.5409	0.100
5.137	71.30	97.5205	4.5400	0.241
5.170	71.65	97.5012	4.5391	0.384
5.203	71.99	97.4822	4.5382	0.526
5.237	72.34	97.4634	4.5374	0.662
5.270	72.68	97.4450	4.5365	0.800
5.303	73.02	97.4269	4.5357	0.940
5.337	73.37	97.4092	4.5348	1.076
5.370	73.71	97.3917	4.5340	1.209
5.403	74.06	97.3744	4.5332	1.338
5.437	74.40	97.3575	4.5324	1.469
5.470	74.75	97.3409	4.5317	1.601
5.503	75.09	97.3248	4.5309	1.730
5.537	75.44	97.3090	4.5302	1.860
5.570	75.78	97.2934	4.5294	1.986
5.603	76.12	97.2782	4.5287	2.113
5.637	76.47	97.2632	4.5280	2.236
5.670	76.82	97.2486	4.5274	2.357
5.703	77.16	97.2342	4.5267	2.478
5.737	77.51	97.2202	4.5260	2.601
5.770	77.85	97.2065	4.5254	2.722
5.803	78.20	97.1931	4.5248	2.840
5.837	78.55	97.1800	4.5242	2.958
5.870	78.89	97.1671	4.5236	3.077
5.903	79.24	97.1545	4.5230	3.195
5.937	79.59	97.1422	4.5224	3.311
5.970	79.93	97.1302	4.5218	3.427
6.003	80.28	97.1184	4.5213	3.538
6.037	80.63	97.1068	4.5208	3.644
6.070	80.98	97.0955	4.5202	3.749
6.103	81.32	97.0846	4.5197	3.854
6.137	81.67	97.0739	4.5192	3.961
6.170	82.02	97.0635	4.5187	4.066
6.203	82.36	97.0534	4.5183	4.167
6.237	82.71	97.0436	4.5178	4.269
6.270	83.06	97.0341	4.5174	4.373
6.303	83.41	97.0246	4.5169	4.475
6.337	83.75	97.0154	4.5165	4.571
6.370	84.10	97.0065	4.5161	4.670
6.403	84.45	96.9979	4.5157	4.769
6.437	84.80	96.9894	4.5153	4.866
6.470	85.14	96.9812	4.5149	4.962
6.503	85.49	96.9732	4.5145	5.055
6.537	85.84	96.9654	4.5142	5.144
6.570	86.18	96.9580	4.5138	5.231
6.603	86.53	96.9507	4.5135	5.319
6.637	86.88	96.9437	4.5132	5.406
6.670	87.22	96.9369	4.5128	5.489
6.703	87.57	96.9302	4.5125	5.573
6.737	87.92	96.9237	4.5122	5.655
6.770	88.26	96.9175	4.5119	5.737
6.803	88.61	96.9115	4.5117	5.819
6.837	88.96	96.9057	4.5114	5.898
6.870	89.30	96.9000	4.5111	5.974
6.903	89.65	96.8945	4.5109	6.048
6.937	90.00	96.8892	4.5106	6.123
6.970	90.34	96.8841	4.5104	6.193
7.003	90.69	96.8790	4.5101	6.263
7.037	91.03	96.8741	4.5099	6.331
7.070	91.38	96.8694	4.5097	6.400
7.103	91.73	96.8649	4.5095	6.472
7.137	92.07	96.8606	4.5093	6.540
7.170	92.42	96.8563	4.5091	6.603
7.203	92.76	96.8522	4.5089	6.664
7.237	93.11	96.8483	4.5087	6.725
7.270	93.45	96.8444	4.5085	6.788
7.303	93.80	96.8408	4.5084	6.850
7.337	94.15	96.8373	4.5082	6.910
7.370	94.49	96.8339	4.5080	6.969
7.403	94.83	96.8307	4.5079	7.022
7.437	95.18	96.8276	4.5078	7.074
7.470	95.52	96.8246	4.5076	7.127
7.503	95.87	96.8217	4.5075	7.174
7.537	96.21	96.8189	4.5074	7.224
7.570	96.56	96.8162	4.5072	7.272
7.603	96.90	96.8135	4.5071	7.319
7.637	97.25	96.8110	4.5070	7.368
7.670	97.59	96.8085	4.5069	7.415
7.703	97.93	96.8062	4.5068	7.461
7.737	98.28	96.8038	4.5067	7.501
7.770	98.62	96.8016	4.5065	7.545
7.803	98.97	96.7994	4.5064	7.591
7.837	99.31	96.7973	4.5063	7.633
7.870	99.66	96.7952	4.5062	7.667
7.903	100.00	96.7934	4.5062	7.702
7.937	100.34	96.7917	4.5061	7.739
7.970	100.69	96.7899	4.5060	7.772
8.003	101.03	96.7882	4.5059	7.805
8.037	101.37	96.7866	4.5058	7.836
8.070	101.72	96.7851	4.5058	7.869
8.103	102.06	96.7835	4.5057	7.901
8.137	102.40	96.7821	4.5056	7.933
8.170	102.75	96.7807	4.5056	7.959
8.203	103.09	96.7793	4.5055	7.986
8.237	103.43	96.7778	4.5054	8.011
8.270	103.78	96.7763	4.5054	8.032
8.303	104.12	96.7749	4.5053	8.051
8.337	104.46	96.7736	4.5052	8.070
8.370	104.81	96.7724	4.5052	8.091
8.403	105.15	96.7712	4.5051	8.112
8.437	105.49	96.7701	4.5051	8.134
8.470	105.84	96.7690	4.5050	8.154
8.503	106.18	96.7680	4.5050	8.173
8.537	106.52	96.7670	4.5049	8.194

[step]
Isothermal 30.0 min
Time	Temperature	Weight	Weight	Heat Flow
min	°C	%	mg	mW
8.545	106.61	96.7668	4.5049	8.200
8.653	107.72	96.7636	4.5048	8.252
8.762	108.79	96.7604	4.5046	8.370
8.870	109.79	96.7571	4.5045	8.550
8.978	110.70	96.7538	4.5043	8.805
9.087	111.49	96.7503	4.5042	9.106
9.195	112.16	96.7460	4.5040	9.448
9.303	112.70	96.7419	4.5038	9.808
9.412	113.09	96.7383	4.5036	10.189
9.520	113.36	96.7339	4.5034	10.557
9.628	113.52	96.7293	4.5032	10.873
9.737	113.58	96.7247	4.5030	11.138
9.845	113.56	96.7206	4.5028	11.359
9.953	113.46	96.7160	4.5026	11.523
10.062	113.32	96.7110	4.5023	11.619
10.170	113.16	96.7070	4.5021	11.647
10.278	112.98	96.7040	4.5020	11.648
10.387	112.81	96.7013	4.5019	11.616
10.495	112.64	96.6991	4.5018	11.541
10.603	112.48	96.6971	4.5017	11.441
10.712	112.34	96.6954	4.5016	11.337
10.820	112.21	96.6940	4.5015	11.235
10.928	112.11	96.6930	4.5015	11.123
11.037	112.03	96.6920	4.5014	11.010
11.145	111.98	96.6909	4.5014	10.912
11.253	111.94	96.6900	4.5014	10.817
11.362	111.93	96.6893	4.5013	10.735
11.470	111.94	96.6887	4.5013	10.659
11.578	111.97	96.6879	4.5013	10.587
11.687	112.01	96.6872	4.5012	10.529
11.795	112.07	96.6866	4.5012	10.489
11.903	112.13	96.6858	4.5012	10.455
12.012	112.21	96.6849	4.5011	10.433
12.120	112.28	96.6840	4.5011	10.416
12.228	112.36	96.6831	4.5010	10.406
12.337	112.44	96.6824	4.5010	10.402
12.445	112.52	96.6818	4.5010	10.403
12.553	112.60	96.6812	4.5009	10.406
12.662	112.67	96.6806	4.5009	10.417
12.770	112.74	96.6800	4.5009	10.433
12.878	112.80	96.6792	4.5008	10.457
12.987	112.85	96.6780	4.5008	10.474
13.095	112.90	96.6773	4.5008	10.491
13.203	112.94	96.6769	4.5007	10.510
13.312	112.98	96.6758	4.5007	10.528
13.420	113.01	96.6750	4.5007	10.541
13.528	113.03	96.6740	4.5006	10.555
13.637	113.05	96.6731	4.5006	10.567
13.745	113.06	96.6722	4.5005	10.576
13.853	113.07	96.6712	4.5005	10.582
13.962	113.08	96.6701	4.5004	10.587
14.070	113.09	96.6691	4.5004	10.591
14.178	113.09	96.6686	4.5004	10.592
14.287	113.09	96.6678	4.5003	10.588
14.395	113.09	96.6667	4.5003	10.585
14.503	113.09	96.6657	4.5002	10.576
14.612	113.09	96.6650	4.5002	10.569
14.720	113.09	96.6643	4.5002	10.563
14.828	113.09	96.6638	4.5001	10.555
14.937	113.10	96.6630	4.5001	10.546
15.045	113.10	96.6623	4.5001	10.536
15.153	113.10	96.6617	4.5000	10.528
15.262	113.11	96.6613	4.5000	10.520
15.370	113.11	96.6605	4.5000	10.512
15.478	113.12	96.6600	4.5000	10.504
15.587	113.12	96.6597	4.4999	10.495
15.695	113.13	96.6591	4.4999	10.485
15.803	113.13	96.6583	4.4999	10.479
15.912	113.14	96.6578	4.4999	10.471
16.020	113.15	96.6573	4.4998	10.464
16.128	113.16	96.6570	4.4998	10.457
16.237	113.16	96.6565	4.4998	10.449
16.345	113.17	96.6558	4.4998	10.444
16.453	113.18	96.6551	4.4997	10.440
16.562	113.19	96.6548	4.4997	10.436
16.670	113.19	96.6542	4.4997	10.429
16.778	113.20	96.6538	4.4997	10.424
16.887	113.21	96.6532	4.4996	10.421
16.995	113.21	96.6529	4.4996	10.414
17.103	113.21	96.6522	4.4996	10.410
17.212	113.22	96.6519	4.4996	10.405
17.320	113.22	96.6513	4.4995	10.402
17.428	113.23	96.6509	4.4995	10.396
17.537	113.23	96.6505	4.4995	10.390
17.645	113.23	96.6499	4.4995	10.387
17.753	113.23	96.6492	4.4995	10.378
17.862	113.23	96.6488	4.4994	10.372
17.970	113.24	96.6487	4.4994	10.368
18.078	113.24	96.6482	4.4994	10.360
18.187	113.24	96.6477	4.4994	10.354
18.295	113.24	96.6470	4.4993	10.348
18.403	113.24	96.6465	4.4993	10.344
18.512	113.24	96.6463	4.4993	10.340
18.620	113.24	96.6459	4.4993	10.335
18.728	113.24	96.6453	4.4993	10.329
18.837	113.24	96.6445	4.4992	10.322
18.945	113.24	96.6442	4.4992	10.317
19.053	113.24	96.6438	4.4992	10.308
19.162	113.24	96.6435	4.4992	10.302
19.270	113.24	96.6432	4.4992	10.297
19.378	113.24	96.6433	4.4992	10.292
19.487	113.24	96.6428	4.4992	10.286
19.595	113.24	96.6423	4.4991	10.278
19.703	113.24	96.6419	4.4991	10.274
19.812	113.24	96.6414	4.4991	10.270
19.920	113.24	96.6407	4.4991	10.263
20.028	113.24	96.6404	4.4990	10.258
20.137	113.24	96.6402	4.4990	10.250
20.245	113.24	96.6399	4.4990	10.244
20.353	113.24	96.6394	4.4990	10.236
20.462	113.24	96.6390	4.4990	10.231
20.570	113.24	96.6384	4.4989	10.225
20.678	113.24	96.6378	4.4989	10.221
20.787	113.24	96.6374	4.4989	10.212
20.895	113.24	96.6369	4.4989	10.208
21.003	113.24	96.6368	4.4989	10.204
21.112	113.24	96.6365	4.4989	10.197
21.220	113.24	96.6362	4.4988	10.191
21.328	113.24	96.6359	4.4988	10.188
21.437	113.24	96.6355	4.4988	10.185
21.545	113.24	96.6350	4.4988	10.178
21.653	113.24	96.6344	4.4988	10.173
21.762	113.24	96.6337	4.4987	10.167
21.870	113.24	96.6335	4.4987	10.162
21.978	113.24	96.6332	4.4987	10.158
22.087	113.24	96.6328	4.4987	10.154
22.195	113.24	96.6326	4.4987	10.151
22.303	113.24	96.6323	4.4987	10.147
22.412	113.24	96.6319	4.4986	10.142
22.520	113.24	96.6318	4.4986	10.134
22.628	113.24	96.6313	4.4986	10.128
22.737	113.24	96.6310	4.4986	10.124
22.845	113.24	96.6306	4.4986	10.118
22.953	113.24	96.6304	4.4986	10.114
23.062	113.24	96.6302	4.4986	10.111
23.170	113.24	96.6301	4.4986	10.106
23.278	113.24	96.6296	4.4985	10.101
23.387	113.24	96.6289	4.4985	10.096
23.495	113.23	96.6285	4.4985	10.091
23.603	113.23	96.6282	4.4985	10.086
23.712	113.23	96.6278	4.4985	10.077
23.820	113.23	96.6276	4.4984	10.070
23.928	113.23	96.6271	4.4984	10.062
24.037	113.23	96.6270	4.4984	10.058
24.145	113.23	96.6265	4.4984	10.057
24.253	113.23	96.6266	4.4984	10.054
24.362	113.23	96.6264	4.4984	10.050
24.470	113.23	96.6260	4.4984	10.046
24.578	113.23	96.6256	4.4984	10.043
24.687	113.23	96.6254	4.4983	10.038
24.795	113.23	96.6249	4.4983	10.034
24.903	113.23	96.6245	4.4983	10.029
25.012	113.23	96.6241	4.4983	10.023
25.120	113.23	96.6243	4.4983	10.018
25.228	113.23	96.6241	4.4983	10.016
25.337	113.23	96.6237	4.4983	10.012
25.445	113.22	96.6234	4.4982	10.004
25.553	113.22	96.6232	4.4982	10.001
25.662	113.22	96.6233	4.4982	9.999
25.770	113.22	96.6229	4.4982	9.994
25.878	113.22	96.6225	4.4982	9.984
25.987	113.22	96.6221	4.4982	9.978
26.095	113.22	96.6218	4.4982	9.972
26.203	113.22	96.6213	4.4982	9.966
26.312	113.22	96.6210	4.4981	9.964
26.420	113.22	96.6205	4.4981	9.960
26.528	113.22	96.6204	4.4981	9.955
26.637	113.22	96.6204	4.4981	9.947
26.745	113.22	96.6201	4.4981	9.941
26.853	113.22	96.6200	4.4981	9.934
26.962	113.22	96.6195	4.4981	9.929
27.070	113.22	96.6194	4.4981	9.924
27.178	113.21	96.6192	4.4981	9.920
27.287	113.21	96.6188	4.4980	9.918
27.395	113.21	96.6185	4.4980	9.911
27.503	113.21	96.6183	4.4980	9.905
27.612	113.21	96.6182	4.4980	9.902
27.720	113.21	96.6180	4.4980	9.900
27.828	113.21	96.6178	4.4980	9.896
27.937	113.21	96.6174	4.4980	9.893
28.045	113.21	96.6171	4.4980	9.893
28.153	113.21	96.6168	4.4979	9.888
28.262	113.21	96.6165	4.4979	9.885
28.370	113.21	96.6161	4.4979	9.882
28.478	113.21	96.6160	4.4979	9.878
28.587	113.21	96.6161	4.4979	9.874
28.695	113.21	96.6157	4.4979	9.870
28.803	113.21	96.6155	4.4979	9.864
28.912	113.21	96.6152	4.4979	9.859
29.020	113.21	96.6147	4.4978	9.856
29.128	113.21	96.6141	4.4978	9.852
29.237	113.21	96.6140	4.4978	9.849
29.345	113.20	96.6137	4.4978	9.847
29.453	113.21	96.6131	4.4978	9.842
29.562	113.20	96.6129	4.4978	9.837
29.670	113.20	96.6126	4.4977	9.833
29.778	113.20	96.6124	4.4977	9.829
29.887	113.20	96.6122	4.4977	9.826
29.995	113.20	96.6120	4.4977	9.822
30.103	113.20	96.6114	4.4977	9.818
30.212	113.20	96.6111	4.4977	9.810
30.320	113.20	96.6110	4.4977	9.806
30.428	113.20	96.6107	4.4977	9.802
30.537	113.20	96.6100	4.4976	9.798
30.645	113.20	96.6097	4.4976	9.798
30.753	113.20	96.6095	4.4976	9.797
30.862	113.20	96.6092	4.4976	9.794
30.970	113.20	96.6087	4.4976	9.789
31.078	113.20	96.6084	4.4976	9.787
31.187	113.20	96.6082	4.4975	9.782
31.295	113.20	96.6083	4.4975	9.777
31.403	113.20	96.6083	4.4975	9.773
31.512	113.20	96.6079	4.4975	9.766
31.620	113.20	96.6076	4.4975	9.762
31.728	113.19	96.6075	4.4975	9.761
31.837	113.19	96.6071	4.4975	9.757
31.945	113.19	96.6071	4.4975	9.753
32.053	113.19	96.6067	4.4975	9.754
32.162	113.20	96.6064	4.4975	9.755
32.270	113.19	96.6060	4.4974	9.751
32.378	113.19	96.6057	4.4974	9.747
32.487	113.19	96.6054	4.4974	9.745
32.595	113.19	96.6052	4.4974	9.740
32.703	113.19	96.6051	4.4974	9.736
[...]
89.845	948.38	-3.3483	-0.1559	81.459
89.887	948.47	-3.3483	-0.1559	82.563
89.928	948.54	-3.3485	-0.1559	83.642
89.970	948.59	-3.3488	-0.1559	84.684
90.012	948.64	-3.3492	-0.1559	85.691
90.053	948.68	-3.3496	-0.1559	86.664
90.095	948.72	-3.3498	-0.1560	87.586
90.137	948.75	-3.3499	-0.1560	88.462
90.178	948.78	-3.3501	-0.1560	89.296
90.220	948.80	-3.3504	-0.1560	90.086
90.262	948.82	-3.3506	-0.1560	90.836
90.303	948.84	-3.3507	-0.1560	91.550
90.345	948.87	-3.3509	-0.1560	92.227
90.387	948.89	-3.3511	-0.1560	92.869
90.428	948.91	-3.3512	-0.1560	93.490
90.470	948.93	-3.3513	-0.1560	94.085
90.512	948.95	-3.3515	-0.1560	94.647
90.553	948.97	-3.3517	-0.1560	95.181
90.595	949.00	-3.3519	-0.1560	95.698
90.637	949.02	-3.3522	-0.1561	96.205
90.678	949.05	-3.3523	-0.1561	96.696
90.720	949.07	-3.3523	-0.1561	97.174
90.762	949.09	-3.3524	-0.1561	97.637
90.803	949.12	-3.3525	-0.1561	98.081
90.845	949.14	-3.3525	-0.1561	98.520
90.887	949.17	-3.3526	-0.1561	98.945
90.928	949.19	-3.3527	-0.1561	99.358
90.970	949.22	-3.3530	-0.1561	99.756
91.012	949.24	-3.3533	-0.1561	100.142
91.053	949.27	-3.3535	-0.1561	100.528
91.095	949.29	-3.3537	-0.1561	100.906
91.137	949.31	-3.3539	-0.1561	101.275
91.178	949.33	-3.3541	-0.1561	101.632
91.220	949.36	-3.3545	-0.1562	101.987
91.262	949.38	-3.3548	-0.1562	102.334
91.303	949.40	-3.3551	-0.1562	102.676
91.345	949.42	-3.3553	-0.1562	103.010
91.387	949.44	-3.3555	-0.1562	103.329
91.428	949.46	-3.3558	-0.1562	103.639
91.470	949.47	-3.3561	-0.1562	103.941
91.512	949.49	-3.3565	-0.1563	104.236
91.553	949.51	-3.3568	-0.1563	104.538
91.595	949.53	-3.3571	-0.1563	104.833
91.637	949.54	-3.3573	-0.1563	105.107
91.678	949.56	-3.3575	-0.1563	105.378
91.720	949.57	-3.3577	-0.1563	105.648
91.762	949.59	-3.3578	-0.1563	105.900
91.803	949.60	-3.3580	-0.1563	106.146
91.845	949.62	-3.3581	-0.1563	106.390
91.887	949.63	-3.3583	-0.1563	106.631
91.928	949.64	-3.3587	-0.1564	106.868
91.970	949.66	-3.3591	-0.1564	107.093
92.012	949.67	-3.3593	-0.1564	107.320
92.053	949.68	-3.3595	-0.1564	107.543
92.095	949.69	-3.3598	-0.1564	107.755
92.137	949.71	-3.3600	-0.1564	107.957
92.178	949.72	-3.3603	-0.1564	108.150
92.220	949.73	-3.3607	-0.1565	108.333
92.262	949.74	-3.3610	-0.1565	108.509
92.303	949.75	-3.3613	-0.1565	108.683
92.345	949.76	-3.3617	-0.1565	108.858
92.387	949.77	-3.3621	-0.1565	109.034
92.428	949.78	-3.3624	-0.1565	109.204
92.470	949.79	-3.3627	-0.1565	109.361
92.512	949.80	-3.3629	-0.1566	109.521
92.553	949.80	-3.3633	-0.1566	109.683
92.595	949.81	-3.3637	-0.1566	109.837
92.637	949.82	-3.3641	-0.1566	109.980
92.678	949.83	-3.3646	-0.1566	110.122
92.720	949.84	-3.3649	-0.1567	110.268
92.762	949.85	-3.3653	-0.1567	110.405
92.803	949.85	-3.3656	-0.1567	110.535
92.845	949.86	-3.3659	-0.1567	110.661
92.887	949.87	-3.3661	-0.1567	110.780
92.928	949.88	-3.3664	-0.1567	110.891
92.970	949.88	-3.3667	-0.1567	111.002
93.012	949.89	-3.3670	-0.1567	111.125
93.053	949.90	-3.3673	-0.1568	111.248
93.095	949.90	-3.3676	-0.1568	111.360
93.137	949.91	-3.3679	-0.1568	111.463
93.178	949.92	-3.3682	-0.1568	111.571
93.220	949.92	-3.3685	-0.1568	111.691
93.262	949.93	-3.3689	-0.1568	111.790
93.303	949.93	-3.3694	-0.1569	111.868
93.345	949.94	-3.3698	-0.1569	111.952
93.387	949.94	-3.3702	-0.1569	112.051
93.428	949.95	-3.3706	-0.1569	112.153
93.470	949.95	-3.3710	-0.1569	112.232
93.512	949.96	-3.3714	-0.1570	112.311
93.553	949.97	-3.3717	-0.1570	112.401
93.595	949.97	-3.3720	-0.1570	112.486
93.637	949.97	-3.3724	-0.1570	112.570
93.678	949.98	-3.3728	-0.1570	112.642
93.720	949.98	-3.3733	-0.1570	112.717
93.762	949.99	-3.3736	-0.1571	112.803
93.803	949.99	-3.3739	-0.1571	112.878
93.845	950.00	-3.3743	-0.1571	112.951
93.887	950.00	-3.3746	-0.1571	113.025
93.928	950.00	-3.3750	-0.1571	113.104
93.970	950.01	-3.3754	-0.1571	113.172
94.012	950.01	-3.3759	-0.1572	113.219
94.053	950.02	-3.3764	-0.1572	113.279
94.095	950.02	-3.3767	-0.1572	113.356
94.137	950.02	-3.3772	-0.1572	113.427
94.178	950.03	-3.3776	-0.1572	113.488
94.220	950.03	-3.3779	-0.1573	113.534
94.262	950.03	-3.3781	-0.1573	113.578
94.303	950.04	-3.3782	-0.1573	113.631
94.345	950.04	-3.3783	-0.1573	113.682
94.387	950.05	-3.3785	-0.1573	113.731
94.428	950.05	-3.3788	-0.1573	113.786
94.470	950.05	-3.3792	-0.1573	113.833
94.512	950.05	-3.3795	-0.1573	113.880
94.553	950.06	-3.3799	-0.1573	113.931
94.595	950.06	-3.3802	-0.1574	113.975
94.637	950.06	-3.3806	-0.1574	114.021
94.678	950.07	-3.3809	-0.1574	114.066
94.720	950.07	-3.3811	-0.1574	114.105
94.762	950.07	-3.3815	-0.1574	114.134
94.803	950.07	-3.3818	-0.1574	114.162
94.845	950.08	-3.3822	-0.1575	114.193
94.887	950.08	-3.3828	-0.1575	114.224
94.928	950.08	-3.3833	-0.1575	114.262
94.970	950.08	-3.3836	-0.1575	114.303
95.012	950.09	-3.3839	-0.1575	114.340
95.053	950.09	-3.3842	-0.1576	114.368
95.095	950.09	-3.3846	-0.1576	114.400
95.137	950.09	-3.3851	-0.1576	114.438
95.178	950.09	-3.3856	-0.1576	114.468
95.220	950.10	-3.3860	-0.1576	114.499
95.262	950.10	-3.3864	-0.1577	114.544
95.303	950.10	-3.3867	-0.1577	114.587
95.345	950.10	-3.3871	-0.1577	114.621
95.387	950.10	-3.3875	-0.1577	114.650
95.428	950.10	-3.3878	-0.1577	114.675
95.470	950.11	-3.3881	-0.1577	114.695
95.512	950.11	-3.3886	-0.1578	114.710
95.553	950.11	-3.3891	-0.1578	114.725
95.595	950.11	-3.3897	-0.1578	114.742
95.637	950.11	-3.3901	-0.1578	114.764
95.678	950.12	-3.3905	-0.1578	114.788
95.720	950.12	-3.3910	-0.1579	114.808
95.762	950.12	-3.3915	-0.1579	114.827
95.803	950.12	-3.3919	-0.1579	114.849
95.845	950.12	-3.3922	-0.1579	114.873
95.887	950.12	-3.3926	-0.1579	114.900
95.928	950.13	-3.3930	-0.1580	114.923
95.970	950.13	-3.3933	-0.1580	114.941
96.012	950.13	-3.3937	-0.1580	114.960
96.053	950.13	-3.3941	-0.1580	114.978
96.095	950.13	-3.3945	-0.1580	114.995
96.137	950.13	-3.3948	-0.1580	115.016
96.178	950.13	-3.3953	-0.1581	115.042
96.220	950.14	-3.3957	-0.1581	115.063
96.262	950.14	-3.3960	-0.1581	115.079
96.303	950.14	-3.3964	-0.1581	115.095
96.345	950.14	-3.3968	-0.1581	115.112
96.387	950.14	-3.3973	-0.1582	115.129
96.428	950.14	-3.3977	-0.1582	115.149
96.470	950.14	-3.3980	-0.1582	115.166
96.512	950.14	-3.3983	-0.1582	115.180
96.553	950.14	-3.3988	-0.1582	115.193
96.595	950.15	-3.3992	-0.1582	115.209
96.637	950.15	-3.3996	-0.1583	115.224
96.678	950.15	-3.3999	-0.1583	115.237
96.720	950.15	-3.4001	-0.1583	115.251
96.762	950.15	-3.4005	-0.1583	115.265
96.803	950.15	-3.4010	-0.1583	115.276
96.845	950.15	-3.4014	-0.1584	115.287
96.887	950.15	-3.4018	-0.1584	115.298
96.928	950.15	-3.4022	-0.1584	115.309
96.970	950.15	-3.4026	-0.1584	115.319
97.012	950.15	-3.4030	-0.1584	115.331
97.053	950.15	-3.4035	-0.1584	115.345
97.095	950.16	-3.4040	-0.1585	115.359
97.137	950.16	-3.4044	-0.1585	115.374
97.178	950.16	-3.4047	-0.1585	115.388
97.220	950.16	-3.4052	-0.1585	115.399
97.262	950.16	-3.4056	-0.1585	115.409
97.303	950.16	-3.4060	-0.1586	115.418
97.345	950.16	-3.4065	-0.1586	115.427
97.387	950.16	-3.4070	-0.1586	115.435
97.428	950.16	-3.4075	-0.1586	115.441
97.470	950.16	-3.4080	-0.1587	115.450
97.512	950.16	-3.4083	-0.1587	115.465
97.553	950.16	-3.4084	-0.1587	115.478
97.595	950.17	-3.4086	-0.1587	115.488
97.637	950.17	-3.4089	-0.1587	115.498
97.678	950.17	-3.4093	-0.1587	115.510
97.720	950.17	-3.4097	-0.1587	115.518
97.762	950.17	-3.4098	-0.1587	115.522
97.803	950.17	-3.4101	-0.1588	115.527
97.845	950.17	-3.4105	-0.1588	115.533
97.887	950.17	-3.4110	-0.1588	115.541
97.928	950.17	-3.4114	-0.1588	115.550
97.970	950.17	-3.4117	-0.1588	115.558
98.012	950.17	-3.4121	-0.1589	115.565
98.053	950.17	-3.4127	-0.1589	115.574
98.095	950.17	-3.4132	-0.1589	115.580
98.137	950.17	-3.4138	-0.1589	115.586
98.178	950.17	-3.4143	-0.1589	115.593
98.220	950.17	-3.4147	-0.1590	115.599
98.262	950.17	-3.4149	-0.1590	115.605
98.303	950.17	-3.4152	-0.1590	115.611
98.345	950.17	-3.4156	-0.1590	115.615
98.387	950.18	-3.4160	-0.1590	115.617
98.428	950.18	-3.4164	-0.1590	115.618
98.470	950.18	-3.4169	-0.1591	115.620
98.512	950.18	-3.4173	-0.1591	115.623
98.553	950.18	-3.4177	-0.1591	115.629
98.595	950.18	-3.4180	-0.1591	115.635
98.637	950.18	-3.4184	-0.1591	115.640
98.678	950.18	-3.4188	-0.1592	115.643
98.720	950.18	-3.4191	-0.1592	115.648
98.762	950.18	-3.4194	-0.1592	115.654
98.803	950.18	-3.4198	-0.1592	115.658
98.845	950.18	-3.4203	-0.1592	115.660
98.887	950.18	-3.4208	-0.1593	115.667
98.928	950.18	-3.4214	-0.1593	115.677
98.970	950.18	-3.4219	-0.1593	115.684
99.012	950.18	-3.4224	-0.1593	115.690
99.053	950.18	-3.4229	-0.1594	115.697
99.095	950.18	-3.4235	-0.1594	115.707
99.137	950.18	-3.4240	-0.1594	115.716
99.178	950.18	-3.4245	-0.1594	115.721
99.220	950.18	-3.4250	-0.1594	115.726
99.262	950.18	-3.4254	-0.1595	115.729
99.303		-3.4259	-0.1595
99.337		-3.4262	-0.1595