File: PSO Kinetics/data/softwood-20Kmin_1.txt
Filename	softwood-20Kmin_1
Instrument name	0650-0369 (192.168.1.2)
Operator	ca527
rundate	1/8/2023
Sample name	softwood-20Kmin_1
proceduresegments	Select Gas: Gas 1 ; Ramp 10.00 °C/min to 110.00 °C; Isothermal 30.0 min; Ramp 20.00 °C/min to 900.00 °C; Isothermal 30.0 min; Select Gas: Gas 2 ; Ramp 10.00 °C/min to 950.00 °C; Isothermal 10.0 min; Data Off ; Equilibrate 30.00 °C
[step]
Ramp 10.00 °C/min to 110.00 °C
Time	Temperature	Weight	Weight	Heat Flow
min	°C	%	mg	mW
0.003		100.0304	4.1507
0.037		100.1668	4.1564
0.070	22.68	100.2092	4.1582	-27.912
0.103	22.82	100.2163	4.1585	-27.773
0.137	22.96	100.2131	4.1583	-27.641
0.170	23.10	100.2081	4.1581	-27.513
0.203	23.23	100.2025	4.1579	-27.392
0.237	23.37	100.1965	4.1576	-27.271
0.270	23.50	100.1898	4.1574	-27.158
0.303	23.63	100.1821	4.1570	-27.048
0.337	23.76	100.1732	4.1567	-26.939
0.370	23.89	100.1634	4.1563	-26.835
0.403	24.03	100.1526	4.1558	-26.735
0.437	24.16	100.1404	4.1553	-26.637
0.470	24.30	100.1267	4.1547	-26.550
0.503	24.44	100.1115	4.1541	-26.471
0.537	24.59	100.0950	4.1534	-26.393
0.570	24.75	100.0773	4.1527	-26.320
0.603	24.90	100.0587	4.1519	-26.257
0.637	25.07	100.0394	4.1511	-26.202
0.670	25.24	100.0198	4.1503	-26.151
0.703	25.42	100.0004	4.1495	-26.099
0.737	25.60	99.9816	4.1487	-26.049
0.770	25.80	99.9633	4.1480	-26.004
0.803	25.99	99.9457	4.1472	-25.964
0.837	26.20	99.9290	4.1465	-25.921
0.870	26.41	99.9134	4.1459	-25.870
0.903	26.63	99.8990	4.1453	-25.811
0.937	26.86	99.8856	4.1447	-25.746
0.970	27.10	99.8727	4.1442	-25.676
1.003	27.34	99.8608	4.1437	-25.592
1.037	27.59	99.8494	4.1432	-25.497
1.070	27.85	99.8383	4.1428	-25.395
1.103	28.11	99.8276	4.1423	-25.284
1.137	28.38	99.8172	4.1419	-25.156
1.170	28.66	99.8067	4.1415	-25.014
1.203	28.95	99.7964	4.1410	-24.866
1.237	29.24	99.7858	4.1406	-24.708
1.270	29.54	99.7749	4.1401	-24.538
1.303	29.84	99.7635	4.1397	-24.359
1.337	30.15	99.7515	4.1392	-24.173
1.370	30.47	99.7392	4.1387	-23.980
1.403	30.79	99.7267	4.1381	-23.774
1.437	31.11	99.7140	4.1376	-23.564
1.470	31.44	99.7036	4.1372	-23.348
1.503	31.78	99.6958	4.1369	-23.128
1.537	32.11	99.6865	4.1365	-22.897
1.570	32.46	99.6719	4.1359	-22.663
1.603	32.80	99.6562	4.1352	-22.421
1.637	33.15	99.6404	4.1346	-22.181
1.670	33.51	99.6244	4.1339	-21.935
1.703	33.86	99.6083	4.1332	-21.684
1.737	34.22	99.5920	4.1325	-21.427
1.770	34.58	99.5755	4.1319	-21.167
1.803	34.94	99.5586	4.1312	-20.903
1.837	35.31	99.5417	4.1305	-20.635
1.870	35.68	99.5245	4.1297	-20.367
1.903	36.05	99.5074	4.1290	-20.097
1.937	36.42	99.4900	4.1283	-19.827
1.970	36.79	99.4724	4.1276	-19.555
2.003	37.17	99.4543	4.1268	-19.279
2.037	37.54	99.4360	4.1261	-19.005
2.070	37.92	99.4173	4.1253	-18.730
2.103	38.29	99.3984	4.1245	-18.454
2.137	38.67	99.3794	4.1237	-18.173
2.170	39.04	99.3602	4.1229	-17.890
2.203	39.42	99.3410	4.1221	-17.609
2.237	39.80	99.3216	4.1213	-17.327
2.270	40.17	99.3019	4.1205	-17.048
2.303	40.55	99.2816	4.1197	-16.768
2.337	40.93	99.2609	4.1188	-16.489
2.370	41.30	99.2400	4.1179	-16.210
2.403	41.68	99.2188	4.1171	-15.931
2.437	42.05	99.1975	4.1162	-15.652
2.470	42.43	99.1759	4.1153	-15.376
2.503	42.80	99.1541	4.1144	-15.100
2.537	43.18	99.1320	4.1135	-14.827
2.570	43.55	99.1096	4.1125	-14.556
2.603	43.92	99.0869	4.1116	-14.286
2.637	44.29	99.0639	4.1106	-14.016
2.670	44.66	99.0407	4.1097	-13.748
2.703	45.03	99.0173	4.1087	-13.480
2.737	45.40	98.9936	4.1077	-13.214
2.770	45.77	98.9696	4.1067	-12.951
2.803	46.13	98.9455	4.1057	-12.689
2.837	46.50	98.9212	4.1047	-12.430
2.870	46.86	98.8967	4.1037	-12.175
2.903	47.22	98.8721	4.1027	-11.919
2.937	47.59	98.8472	4.1016	-11.664
2.970	47.95	98.8222	4.1006	-11.412
3.003	48.31	98.7970	4.0996	-11.168
3.037	48.67	98.7715	4.0985	-10.923
3.070	49.02	98.7458	4.0974	-10.678
3.103	49.38	98.7200	4.0964	-10.437
3.137	49.74	98.6940	4.0953	-10.199
3.170	50.09	98.6680	4.0942	-9.962
3.203	50.45	98.6418	4.0931	-9.728
3.237	50.80	98.6156	4.0920	-9.495
3.270	51.15	98.5892	4.0909	-9.265
3.303	51.50	98.5626	4.0898	-9.037
3.337	51.85	98.5360	4.0887	-8.808
3.370	52.20	98.5091	4.0876	-8.583
3.403	52.55	98.4823	4.0865	-8.365
3.437	52.90	98.4554	4.0854	-8.150
3.470	53.25	98.4285	4.0843	-7.929
3.503	53.59	98.4015	4.0831	-7.709
3.537	53.94	98.3746	4.0820	-7.498
3.570	54.29	98.3477	4.0809	-7.287
3.603	54.63	98.3208	4.0798	-7.077
3.637	54.98	98.2939	4.0787	-6.870
3.670	55.32	98.2669	4.0776	-6.665
3.703	55.66	98.2399	4.0764	-6.461
3.737	56.00	98.2129	4.0753	-6.261
3.770	56.35	98.1861	4.0742	-6.063
3.803	56.69	98.1594	4.0731	-5.864
3.837	57.03	98.1327	4.0720	-5.665
3.870	57.37	98.1061	4.0709	-5.471
3.903	57.71	98.0796	4.0698	-5.285
3.937	58.05	98.0532	4.0687	-5.098
3.970	58.40	98.0270	4.0676	-4.907
4.003	58.74	98.0010	4.0665	-4.721
4.037	59.08	97.9752	4.0655	-4.534
4.070	59.42	97.9494	4.0644	-4.346
4.103	59.76	97.9238	4.0633	-4.158
4.137	60.10	97.8993	4.0623	-3.976
4.170	60.44	97.8754	4.0613	-3.797
4.203	60.78	97.8523	4.0604	-3.617
4.237	61.12	97.8283	4.0594	-3.444
4.270	61.46	97.8036	4.0583	-3.274
4.303	61.80	97.7784	4.0573	-3.103
4.337	62.14	97.7538	4.0563	-2.936
4.370	62.47	97.7295	4.0553	-2.766
4.403	62.81	97.7053	4.0543	-2.596
4.437	63.15	97.6814	4.0533	-2.426
4.470	63.49	97.6578	4.0523	-2.260
4.503	63.83	97.6347	4.0513	-2.097
4.537	64.17	97.6120	4.0504	-1.936
4.570	64.51	97.5897	4.0495	-1.776
4.603	64.85	97.5688	4.0486	-1.616
4.637	65.19	97.5480	4.0477	-1.459
4.670	65.53	97.5266	4.0468	-1.302
4.703	65.87	97.5049	4.0459	-1.143
4.737	66.21	97.4835	4.0451	-0.987
4.770	66.55	97.4626	4.0442	-0.833
4.803	66.89	97.4420	4.0433	-0.681
4.837	67.24	97.4218	4.0425	-0.531
4.870	67.58	97.4019	4.0417	-0.381
4.903	67.92	97.3822	4.0409	-0.234
4.937	68.26	97.3629	4.0401	-0.085
4.970	68.60	97.3440	4.0393	0.061
5.003	68.94	97.3258	4.0385	0.202
5.037	69.29	97.3079	4.0378	0.341
5.070	69.63	97.2902	4.0370	0.479
5.103	69.97	97.2725	4.0363	0.618
5.137	70.31	97.2550	4.0356	0.757
5.170	70.65	97.2380	4.0349	0.894
5.203	71.00	97.2213	4.0342	1.031
5.237	71.34	97.2047	4.0335	1.164
5.270	71.68	97.1884	4.0328	1.294
5.303	72.03	97.1726	4.0322	1.422
5.337	72.37	97.1578	4.0315	1.548
5.370	72.71	97.1435	4.0309	1.676
5.403	73.06	97.1295	4.0304	1.804
5.437	73.40	97.1156	4.0298	1.930
5.470	73.74	97.1016	4.0292	2.053
5.503	74.09	97.0872	4.0286	2.179
5.537	74.43	97.0731	4.0280	2.305
5.570	74.78	97.0593	4.0275	2.430
5.603	75.12	97.0457	4.0269	2.549
5.637	75.47	97.0324	4.0263	2.668
5.670	75.81	97.0195	4.0258	2.783
5.703	76.16	97.0069	4.0253	2.897
5.737	76.50	96.9946	4.0248	3.012
5.770	76.85	96.9828	4.0243	3.126
5.803	77.20	96.9712	4.0238	3.236
5.837	77.54	96.9600	4.0233	3.345
5.870	77.89	96.9491	4.0229	3.455
5.903	78.23	96.9384	4.0224	3.563
5.937	78.58	96.9279	4.0220	3.667
5.970	78.92	96.9177	4.0216	3.771
6.003	79.27	96.9077	4.0212	3.873
6.037	79.62	96.8981	4.0208	3.977
6.070	79.96	96.8888	4.0204	4.074
6.103	80.31	96.8797	4.0200	4.172
6.137	80.65	96.8708	4.0196	4.271
6.170	81.00	96.8622	4.0193	4.368
6.203	81.35	96.8544	4.0190	4.465
6.237	81.69	96.8475	4.0187	4.559
6.270	82.04	96.8404	4.0184	4.653
6.303	82.39	96.8325	4.0180	4.746
6.337	82.73	96.8246	4.0177	4.837
6.370	83.08	96.8171	4.0174	4.921
6.403	83.42	96.8097	4.0171	5.003
6.437	83.77	96.8024	4.0168	5.089
6.470	84.12	96.7953	4.0165	5.175
6.503	84.46	96.7885	4.0162	5.258
6.537	84.81	96.7821	4.0159	5.338
6.570	85.16	96.7758	4.0157	5.420
6.603	85.50	96.7697	4.0154	5.498
6.637	85.85	96.7639	4.0152	5.573
6.670	86.20	96.7583	4.0150	5.649
6.703	86.54	96.7529	4.0147	5.728
6.737	86.89	96.7476	4.0145	5.802
6.770	87.23	96.7425	4.0143	5.870
6.803	87.58	96.7377	4.0141	5.940
6.837	87.93	96.7330	4.0139	6.014
6.870	88.27	96.7286	4.0137	6.089
6.903	88.62	96.7243	4.0136	6.157
6.937	88.96	96.7202	4.0134	6.219
6.970	89.31	96.7161	4.0132	6.286
7.003	89.65	96.7121	4.0130	6.354
7.037	90.00	96.7084	4.0129	6.418
7.070	90.34	96.7049	4.0127	6.474
7.103	90.69	96.7016	4.0126	6.529
7.137	91.03	96.7013	4.0126	6.588
7.170	91.38	96.7031	4.0127	6.644
7.203	91.73	96.7031	4.0127	6.697
7.237	92.07	96.6991	4.0125	6.749
7.270	92.41	96.6947	4.0123	6.805
7.303	92.76	96.6906	4.0122	6.859
7.337	93.11	96.6868	4.0120	6.909
7.370	93.45	96.6831	4.0118	6.959
7.403	93.79	96.6798	4.0117	7.009
7.437	94.14	96.6766	4.0116	7.057
7.470	94.48	96.6739	4.0115	7.102
7.503	94.83	96.6716	4.0114	7.145
7.537	95.17	96.6695	4.0113	7.184
7.570	95.51	96.6679	4.0112	7.225
7.603	95.86	96.6671	4.0112	7.268
7.637	96.20	96.6663	4.0111	7.306
7.670	96.55	96.6644	4.0111	7.342
7.703	96.89	96.6619	4.0110	7.385
7.737	97.23	96.6594	4.0109	7.423
7.770	97.58	96.6574	4.0108	7.452
7.803	97.92	96.6558	4.0107	7.477
7.837	98.26	96.6541	4.0106	7.507
7.870	98.61	96.6523	4.0106	7.538
7.903	98.95	96.6505	4.0105	7.567
7.937	99.29	96.6487	4.0104	7.594
7.970	99.64	96.6471	4.0103	7.622
8.003	99.98	96.6456	4.0103	7.651
8.037	100.32	96.6442	4.0102	7.676
8.070	100.67	96.6432	4.0102	7.699
8.103	101.01	96.6425	4.0102	7.721
8.137	101.35	96.6419	4.0101	7.743
8.170	101.70	96.6411	4.0101	7.765
8.203	102.04	96.6399	4.0100	7.785
8.237	102.38	96.6387	4.0100	7.806
8.270	102.72	96.6376	4.0100	7.828
8.303	103.07	96.6365	4.0099	7.846
8.337	103.41	96.6355	4.0099	7.858
8.370	103.75	96.6345	4.0098	7.870
8.403	104.10	96.6335	4.0098	7.887
8.437	104.44	96.6324	4.0097	7.903
8.470	104.78	96.6315	4.0097	7.916
8.503	105.12	96.6306	4.0097	7.925
8.537	105.47	96.6298	4.0096	7.935
8.570	105.81	96.6290	4.0096	7.946
8.603	106.15	96.6282	4.0096	7.955
8.637	106.49	96.6274	4.0095	7.963

[step]
Isothermal 30.0 min
Time	Temperature	Weight	Weight	Heat Flow
min	°C	%	mg	mW
8.645	106.58	96.6272	4.0095	7.965
8.753	107.69	96.6250	4.0094	8.000
8.862	108.76	96.6232	4.0094	8.092
8.970	109.77	96.6218	4.0093	8.254
9.078	110.67	96.6210	4.0093	8.493
9.187	111.47	96.6174	4.0091	8.801
9.295	112.14	96.6142	4.0090	9.131
9.403	112.69	96.6110	4.0089	9.491
9.512	113.09	96.6087	4.0088	9.880
9.620	113.37	96.6102	4.0088	10.250
9.728	113.53	96.6055	4.0086	10.591
9.837	113.59	96.6025	4.0085	10.876
9.945	113.57	96.5949	4.0082	11.119
10.053	113.48	96.5886	4.0079	11.298
10.162	113.34	96.5827	4.0077	11.408
10.270	113.18	96.5795	4.0075	11.449
10.378	113.01	96.5781	4.0075	11.457
10.487	112.84	96.5755	4.0074	11.444
10.595	112.66	96.5753	4.0074	11.380
10.703	112.50	96.5718	4.0072	11.290
10.812	112.36	96.5702	4.0072	11.181
10.920	112.23	96.5706	4.0072	11.071
11.028	112.12	96.5722	4.0072	10.961
11.137	112.04	96.5706	4.0072	10.850
11.245	111.98	96.5677	4.0071	10.753
11.353	111.95	96.5668	4.0070	10.656
11.462	111.93	96.5672	4.0070	10.568
11.570	111.94	96.5643	4.0069	10.491
11.678	111.96	96.5620	4.0068	10.427
11.787	112.00	96.5622	4.0068	10.362
11.895	112.06	96.5608	4.0068	10.321
12.003	112.12	96.5606	4.0068	10.284
12.112	112.19	96.5617	4.0068	10.257
12.220	112.27	96.5675	4.0070	10.230
12.328	112.35	96.5704	4.0072	10.217
12.437	112.43	96.5670	4.0070	10.213
12.545	112.51	96.5616	4.0068	10.212
12.653	112.58	96.5575	4.0066	10.214
12.762	112.66	96.5555	4.0065	10.222
12.870	112.72	96.5586	4.0067	10.231
12.978	112.78	96.5573	4.0066	10.243
13.087	112.84	96.5574	4.0066	10.260
13.195	112.89	96.5536	4.0065	10.277
13.303	112.93	96.5520	4.0064	10.294
13.412	112.97	96.5527	4.0064	10.310
13.520	113.00	96.5511	4.0064	10.324
13.628	113.02	96.5540	4.0065	10.340
13.737	113.04	96.5595	4.0067	10.352
13.845	113.05	96.5565	4.0066	10.363
13.953	113.06	96.5548	4.0065	10.370
14.062	113.07	96.5540	4.0065	10.378
14.170	113.08	96.5480	4.0062	10.384
14.278	113.08	96.5466	4.0062	10.385
14.387	113.08	96.5487	4.0063	10.386
14.495	113.08	96.5444	4.0061	10.382
14.603	113.08	96.5412	4.0060	10.378
14.712	113.08	96.5407	4.0059	10.372
14.820	113.08	96.5406	4.0059	10.365
14.928	113.08	96.5381	4.0058	10.358
15.037	113.08	96.5406	4.0059	10.346
15.145	113.08	96.5402	4.0059	10.338
15.253	113.09	96.5411	4.0060	10.328
15.362	113.09	96.5385	4.0058	10.323
15.470	113.10	96.5354	4.0057	10.319
15.578	113.10	96.5334	4.0056	10.311
15.687	113.11	96.5318	4.0056	10.305
15.795	113.11	96.5306	4.0055	10.296
15.903	113.12	96.5300	4.0055	10.288
16.012	113.13	96.5292	4.0055	10.278
16.120	113.14	96.5285	4.0054	10.270
16.228	113.14	96.5281	4.0054	10.264
16.337	113.15	96.5274	4.0054	10.259
16.445	113.16	96.5270	4.0054	10.252
16.553	113.17	96.5268	4.0054	10.248
16.662	113.17	96.5262	4.0053	10.244
16.770	113.18	96.5255	4.0053	10.239
16.878	113.18	96.5249	4.0053	10.237
16.987	113.19	96.5246	4.0053	10.234
17.095	113.20	96.5244	4.0053	10.230
17.203	113.20	96.5242	4.0052	10.224
17.312	113.20	96.5234	4.0052	10.219
17.420	113.21	96.5228	4.0052	10.213
17.528	113.21	96.5226	4.0052	10.208
17.637	113.21	96.5218	4.0051	10.202
17.745	113.22	96.5213	4.0051	10.201
17.853	113.22	96.5214	4.0051	10.197
17.962	113.22	96.5209	4.0051	10.192
18.070	113.22	96.5201	4.0051	10.189
18.178	113.22	96.5192	4.0050	10.184
18.287	113.22	96.5184	4.0050	10.178
18.395	113.22	96.5183	4.0050	10.172
18.503	113.23	96.5180	4.0050	10.169
18.612	113.22	96.5178	4.0050	10.165
18.720	113.22	96.5174	4.0050	10.157
18.828	113.22	96.5164	4.0049	10.148
18.937	113.23	96.5159	4.0049	10.144
19.045	113.23	96.5155	4.0049	10.143
19.153	113.22	96.5151	4.0049	10.140
19.262	113.23	96.5144	4.0048	10.133
19.370	113.23	96.5138	4.0048	10.129
19.478	113.23	96.5187	4.0050	10.118
19.587	113.23	96.5164	4.0049	10.112
19.695	113.23	96.5161	4.0049	10.108
19.803	113.23	96.5155	4.0049	10.103
19.912	113.23	96.5144	4.0048	10.100
20.020	113.23	96.5149	4.0049	10.098
20.128	113.23	96.5185	4.0050	10.090
20.237	113.23	96.5173	4.0050	10.084
20.345	113.23	96.5173	4.0050	10.074
20.453	113.23	96.5166	4.0049	10.069
20.562	113.23	96.5165	4.0049	10.067
20.670	113.23	96.5164	4.0049	10.059
20.778	113.23	96.5155	4.0049	10.053
20.887	113.23	96.5149	4.0049	10.043
20.995	113.23	96.5158	4.0049	10.037
21.103	113.23	96.5132	4.0048	10.035
21.212	113.23	96.5102	4.0047	10.034
21.320	113.23	96.5082	4.0046	10.030
21.428	113.23	96.5087	4.0046	10.025
21.537	113.23	96.5102	4.0047	10.018
21.645	113.23	96.5135	4.0048	10.014
21.753	113.23	96.5116	4.0047	10.010
21.862	113.23	96.5103	4.0047	10.007
21.970	113.23	96.5098	4.0047	10.003
22.078	113.23	96.5101	4.0047	9.998
22.187	113.23	96.5091	4.0046	9.992
22.295	113.23	96.5085	4.0046	9.987
22.403	113.23	96.5073	4.0045	9.983
22.512	113.23	96.5130	4.0048	9.973
22.620	113.22	96.5104	4.0047	9.966
22.728	113.22	96.5092	4.0046	9.962
22.837	113.22	96.5086	4.0046	9.957
22.945	113.22	96.5099	4.0047	9.952
23.053	113.22	96.5079	4.0046	9.945
23.162	113.22	96.5105	4.0047	9.941
23.270	113.22	96.5132	4.0048	9.939
23.378	113.22	96.5127	4.0048	9.936
23.487	113.22	96.5169	4.0049	9.929
23.595	113.22	96.5124	4.0048	9.925
23.703	113.22	96.5150	4.0049	9.917
23.812	113.22	96.5114	4.0047	9.913
23.920	113.22	96.5068	4.0045	9.908
24.028	113.22	96.5039	4.0044	9.908
24.137	113.22	96.5018	4.0043	9.904
24.245	113.22	96.5035	4.0044	9.901
24.353	113.22	96.5005	4.0043	9.902
24.462	113.22	96.4985	4.0042	9.898
24.570	113.22	96.4978	4.0042	9.893
24.678	113.22	96.4965	4.0041	9.891
24.787	113.22	96.4962	4.0041	9.886
24.895	113.21	96.4958	4.0041	9.879
25.003	113.21	96.4970	4.0041	9.878
25.112	113.21	96.4954	4.0041	9.874
25.220	113.21	96.4952	4.0040	9.871
25.328	113.21	96.4965	4.0041	9.868
25.437	113.21	96.4954	4.0041	9.862
25.545	113.21	96.4942	4.0040	9.860
25.653	113.21	96.4949	4.0040	9.858
25.762	113.21	96.4936	4.0040	9.857
25.870	113.21	96.4987	4.0042	9.853
25.978	113.21	96.5005	4.0043	9.847
26.087	113.21	96.4995	4.0042	9.841
26.195	113.21	96.4971	4.0041	9.838
26.303	113.21	96.4963	4.0041	9.834
26.412	113.21	96.4948	4.0040	9.826
26.520	113.21	96.4965	4.0041	9.822
26.628	113.21	96.4958	4.0041	9.821
26.737	113.21	96.4951	4.0040	9.814
26.845	113.21	96.4938	4.0040	9.812
26.953	113.20	96.4960	4.0041	9.806
27.062	113.20	96.4936	4.0040	9.800
27.170	113.20	96.4936	4.0040	9.798
27.278	113.20	96.5004	4.0043	9.794
27.387	113.20	96.5004	4.0043	9.788
27.495	113.20	96.4982	4.0042	9.786
27.603	113.20	96.4989	4.0042	9.784
27.712	113.20	96.4959	4.0041	9.780
27.820	113.20	96.4987	4.0042	9.771
27.928	113.20	96.4967	4.0041	9.766
28.037	113.20	96.4948	4.0040	9.763
28.145	113.20	96.4942	4.0040	9.761
28.253	113.20	96.4939	4.0040	9.760
28.362	113.20	96.4964	4.0041	9.754
28.470	113.20	96.4952	4.0040	9.752
28.578	113.20	96.4940	4.0040	9.748
28.687	113.20	96.4925	4.0039	9.744
28.795	113.20	96.4990	4.0042	9.739
28.903	113.20	96.4955	4.0041	9.739
29.012	113.20	96.4908	4.0039	9.736
29.120	113.19	96.4901	4.0038	9.733
29.228	113.19	96.4920	4.0039	9.727
29.337	113.19	96.4883	4.0038	9.723
29.445	113.19	96.4878	4.0037	9.720
29.553	113.19	96.4883	4.0038	9.721
29.662	113.19	96.4868	4.0037	9.719
29.770	113.19	96.4882	4.0038	9.718
29.878	113.19	96.4857	4.0037	9.717
29.987	113.19	96.4860	4.0037	9.715
30.095	113.19	96.4853	4.0036	9.710
30.203	113.19	96.4857	4.0037	9.704
30.312	113.19	96.4849	4.0036	9.701
30.420	113.19	96.4837	4.0036	9.700
30.528	113.19	96.4819	4.0035	9.699
30.637	113.19	96.4824	4.0035	9.696
30.745	113.19	96.4943	4.0040	9.685
30.853	113.19	96.4892	4.0038	9.682
30.962	113.19	96.4860	4.0037	9.679
31.070	113.19	96.4843	4.0036	9.678
31.178	113.19	96.4832	4.0035	9.675
31.287	113.19	96.4823	4.0035	9.670
31.395	113.19	96.4815	4.0035	9.669
31.503	113.19	96.4810	4.0035	9.669
31.612	113.19	96.4810	4.0035	9.668
31.720	113.19	96.4806	4.0034	9.665
31.828	113.19	96.4803	4.0034	9.661
31.937	113.18	96.4799	4.0034	9.656
32.045	113.18	96.4796	4.0034	9.654
32.153	113.19	96.4791	4.0034	9.652
32.262	113.18	96.4787	4.0034	9.655
32.370	113.18	96.4784	4.0034	9.652
32.478	113.18	96.4782	4.0033	9.649
32.587	113.18	96.4779	4.0033	9.646
32.695	113.18	96.4778	4.0033	9.643
[...]
113.278	946.31	2.0057	0.0832	60.988
113.320	946.63	2.0054	0.0832	61.639
113.362	946.91	2.0051	0.0832	62.363
113.403	947.16	2.0047	0.0832	63.138
113.445	947.38	2.0044	0.0832	63.955
113.487	947.57	2.0041	0.0832	64.803
113.528	947.73	2.0039	0.0832	65.666
113.570	947.87	2.0035	0.0831	66.531
113.612	947.98	2.0031	0.0831	67.402
113.653	948.07	2.0026	0.0831	68.282
113.695	948.15	2.0020	0.0831	69.145
113.737	948.22	2.0015	0.0831	69.997
113.778	948.27	2.0012	0.0830	70.838
113.820	948.31	2.0010	0.0830	71.644
113.862	948.35	2.0009	0.0830	72.429
113.903	948.38	2.0007	0.0830	73.192
113.945	948.41	2.0007	0.0830	73.923
113.987	948.43	2.0005	0.0830	74.630
114.028	948.45	2.0003	0.0830	75.307
114.070	948.47	2.0000	0.0830	75.965
114.112	948.49	1.9997	0.0830	76.600
114.153	948.51	1.9995	0.0830	77.214
114.195	948.53	1.9993	0.0830	77.814
114.237	948.55	1.9990	0.0829	78.385
114.278	948.57	1.9987	0.0829	78.938
114.320	948.59	1.9986	0.0829	79.475
114.362	948.61	1.9984	0.0829	79.992
114.403	948.64	1.9982	0.0829	80.491
114.445	948.66	1.9980	0.0829	80.980
114.487	948.68	1.9977	0.0829	81.469
114.528	948.71	1.9975	0.0829	81.938
114.570	948.73	1.9974	0.0829	82.393
114.612	948.76	1.9972	0.0829	82.845
114.653	948.78	1.9970	0.0829	83.285
114.695	948.81	1.9967	0.0829	83.707
114.737	948.83	1.9964	0.0828	84.122
114.778	948.86	1.9962	0.0828	84.536
114.820	948.88	1.9959	0.0828	84.941
114.862	948.91	1.9956	0.0828	85.341
114.903	948.93	1.9955	0.0828	85.729
114.945	948.95	1.9954	0.0828	86.100
114.987	948.97	1.9952	0.0828	86.467
115.028	949.00	1.9948	0.0828	86.840
115.070	949.02	1.9944	0.0828	87.199
115.112	949.04	1.9940	0.0827	87.548
115.153	949.06	1.9936	0.0827	87.901
115.195	949.08	1.9933	0.0827	88.243
115.237	949.10	1.9930	0.0827	88.558
115.278	949.12	1.9927	0.0827	88.868
115.320	949.13	1.9925	0.0827	89.182
115.362	949.15	1.9924	0.0827	89.492
115.403	949.17	1.9924	0.0827	89.793
115.445	949.18	1.9923	0.0827	90.086
115.487	949.20	1.9921	0.0827	90.379
115.528	949.22	1.9919	0.0827	90.655
115.570	949.23	1.9916	0.0826	90.931
115.612	949.25	1.9912	0.0826	91.214
115.653	949.26	1.9909	0.0826	91.469
115.695	949.27	1.9907	0.0826	91.719
115.737	949.29	1.9906	0.0826	91.967
115.778	949.30	1.9904	0.0826	92.202
115.820	949.31	1.9901	0.0826	92.443
115.862	949.33	1.9897	0.0826	92.672
115.903	949.34	1.9894	0.0826	92.887
115.945	949.35	1.9892	0.0825	93.109
115.987	949.36	1.9890	0.0825	93.328
116.028	949.37	1.9888	0.0825	93.542
116.070	949.38	1.9886	0.0825	93.746
116.112	949.40	1.9883	0.0825	93.950
116.153	949.41	1.9880	0.0825	94.141
116.195	949.42	1.9877	0.0825	94.331
116.237	949.43	1.9874	0.0825	94.522
116.278	949.44	1.9871	0.0825	94.694
116.320	949.45	1.9869	0.0824	94.874
116.362	949.46	1.9866	0.0824	95.046
116.403	949.46	1.9863	0.0824	95.205
116.445	949.47	1.9858	0.0824	95.367
116.487	949.48	1.9854	0.0824	95.530
116.528	949.49	1.9852	0.0824	95.687
116.570	949.50	1.9850	0.0824	95.840
116.612	949.51	1.9848	0.0824	95.994
116.653	949.51	1.9845	0.0823	96.145
116.695	949.52	1.9842	0.0823	96.289
116.737	949.53	1.9837	0.0823	96.432
116.778	949.54	1.9833	0.0823	96.571
116.820	949.54	1.9830	0.0823	96.705
116.862	949.55	1.9826	0.0823	96.834
116.903	949.56	1.9824	0.0823	96.966
116.945	949.56	1.9821	0.0822	97.095
116.987	949.57	1.9817	0.0822	97.221
117.028	949.58	1.9813	0.0822	97.346
117.070	949.58	1.9809	0.0822	97.467
117.112	949.59	1.9804	0.0822	97.593
117.153	949.60	1.9799	0.0822	97.704
117.195	949.60	1.9796	0.0821	97.812
117.237	949.61	1.9793	0.0821	97.921
117.278	949.61	1.9789	0.0821	98.027
117.320	949.62	1.9786	0.0821	98.137
117.362	949.62	1.9783	0.0821	98.239
117.403	949.63	1.9780	0.0821	98.339
117.445	949.64	1.9777	0.0821	98.439
117.487	949.64	1.9773	0.0820	98.529
117.528	949.65	1.9769	0.0820	98.608
117.570	949.65	1.9765	0.0820	98.681
117.612	949.66	1.9762	0.0820	98.761
117.653	949.66	1.9758	0.0820	98.845
117.695	949.67	1.9753	0.0820	98.929
117.737	949.67	1.9750	0.0820	99.015
117.778	949.67	1.9746	0.0819	99.096
117.820	949.68	1.9741	0.0819	99.176
117.862	949.68	1.9737	0.0819	99.260
117.903	949.69	1.9733	0.0819	99.355
117.945	949.69	1.9732	0.0819	99.434
117.987	949.69	1.9730	0.0819	99.503
118.028	949.70	1.9728	0.0819	99.582
118.070	949.70	1.9725	0.0818	99.653
118.112	949.70	1.9722	0.0818	99.725
118.153	949.71	1.9719	0.0818	99.802
118.195	949.71	1.9716	0.0818	99.873
118.237	949.71	1.9713	0.0818	99.939
118.278	949.72	1.9709	0.0818	100.006
118.320	949.72	1.9707	0.0818	100.071
118.362	949.73	1.9705	0.0818	100.135
118.403	949.73	1.9703	0.0818	100.196
118.445	949.73	1.9699	0.0817	100.249
118.487	949.74	1.9695	0.0817	100.296
118.528	949.74	1.9690	0.0817	100.354
118.570	949.74	1.9686	0.0817	100.420
118.612	949.74	1.9683	0.0817	100.484
118.653	949.75	1.9680	0.0817	100.547
118.695	949.75	1.9677	0.0816	100.603
118.737	949.75	1.9673	0.0816	100.657
118.778	949.76	1.9670	0.0816	100.716
118.820	949.76	1.9668	0.0816	100.770
118.862	949.76	1.9664	0.0816	100.817
118.903	949.76	1.9661	0.0816	100.868
118.945	949.77	1.9657	0.0816	100.911
118.987	949.77	1.9653	0.0816	100.945
119.028	949.77	1.9651	0.0815	100.987
119.070	949.77	1.9648	0.0815	101.038
119.112	949.78	1.9644	0.0815	101.087
119.153	949.78	1.9640	0.0815	101.131
119.195	949.78	1.9635	0.0815	101.171
119.237	949.78	1.9629	0.0815	101.211
119.278	949.79	1.9626	0.0814	101.258
119.320	949.79	1.9623	0.0814	101.305
119.362	949.79	1.9620	0.0814	101.347
119.403	949.79	1.9617	0.0814	101.383
119.445	949.79	1.9614	0.0814	101.428
119.487	949.80	1.9611	0.0814	101.474
119.528	949.80	1.9608	0.0814	101.508
119.570	949.80	1.9605	0.0814	101.545
119.612	949.80	1.9601	0.0813	101.589
119.653	949.80	1.9598	0.0813	101.628
119.695	949.81	1.9595	0.0813	101.664
119.737	949.81	1.9593	0.0813	101.701
119.778	949.81	1.9592	0.0813	101.735
119.820	949.81	1.9589	0.0813	101.768
119.862	949.81	1.9585	0.0813	101.807
119.903	949.82	1.9580	0.0812	101.843
119.945	949.82	1.9576	0.0812	101.872
119.987	949.82	1.9572	0.0812	101.899
120.028	949.82	1.9567	0.0812	101.927
120.070	949.82	1.9562	0.0812	101.966
120.112	949.82	1.9558	0.0812	102.004
120.153	949.82	1.9555	0.0811	102.034
120.195	949.83	1.9552	0.0811	102.057
120.237	949.83	1.9547	0.0811	102.080
120.278	949.83	1.9542	0.0811	102.108
120.320	949.83	1.9539	0.0811	102.138
120.362	949.83	1.9535	0.0811	102.169
120.403	949.83	1.9531	0.0810	102.197
120.445	949.83	1.9527	0.0810	102.221
120.487	949.84	1.9523	0.0810	102.249
120.528	949.84	1.9519	0.0810	102.278
120.570	949.84	1.9517	0.0810	102.308
120.612	949.84	1.9514	0.0810	102.336
120.653	949.84	1.9509	0.0810	102.361
120.695	949.84	1.9505	0.0809	102.391
120.737	949.84	1.9502	0.0809	102.418
120.778	949.84	1.9499	0.0809	102.436
120.820	949.85	1.9496	0.0809	102.455
120.862	949.85	1.9493	0.0809	102.477
120.903	949.85	1.9490	0.0809	102.501
120.945	949.85	1.9483	0.0808	102.523
120.987	949.85	1.9477	0.0808	102.543
121.028	949.85	1.9473	0.0808	102.569
121.070	949.85	1.9469	0.0808	102.596
121.112	949.85	1.9464	0.0808	102.617
121.153	949.85	1.9459	0.0807	102.642
121.195	949.85	1.9455	0.0807	102.669
121.237	949.86	1.9452	0.0807	102.695
121.278	949.86	1.9450	0.0807	102.723
121.320	949.86	1.9448	0.0807	102.752
121.362	949.86	1.9446	0.0807	102.779
121.403	949.86	1.9443	0.0807	102.807
121.445	949.86	1.9441	0.0807	102.832
121.487	949.86	1.9439	0.0807	102.858
121.528	949.86	1.9438	0.0807	102.883
121.570	949.86	1.9437	0.0807	102.903
121.612	949.86	1.9433	0.0806	102.923
121.653	949.87	1.9429	0.0806	102.943
121.695	949.87	1.9426	0.0806	102.963
121.737	949.87	1.9423	0.0806	102.983
121.778	949.87	1.9420	0.0806	103.002
121.820	949.87	1.9418	0.0806	103.022
121.862	949.87	1.9416	0.0806	103.039
121.903	949.87	1.9413	0.0806	103.050
121.945	949.87	1.9410	0.0805	103.063
121.987	949.87	1.9407	0.0805	103.079
122.028	949.87	1.9402	0.0805	103.099
122.070	949.87	1.9397	0.0805	103.119
122.112	949.87	1.9391	0.0805	103.137
122.153	949.88	1.9386	0.0804	103.161
122.195	949.88	1.9383	0.0804	103.188
122.237	949.88	1.9380	0.0804	103.211
122.278	949.88	1.9375	0.0804	103.234
122.320	949.88	1.9372	0.0804	103.253
122.362	949.88	1.9368	0.0804	103.265
122.403	949.88	1.9363	0.0803	103.275
122.445	949.88	1.9359	0.0803	103.288
122.487	949.88	1.9355	0.0803	103.306
122.528	949.88	1.9352	0.0803	103.326
122.570	949.88	1.9348	0.0803	103.344
122.612	949.88	1.9345	0.0803	103.363
122.653	949.88	1.9341	0.0803	103.383
122.695	949.88	1.9338	0.0802	103.399
122.737	949.89	1.9335	0.0802	103.411
122.778	949.89	1.9332	0.0802	103.427
122.820	949.89	1.9328	0.0802	103.442
122.862	949.89	1.9325	0.0802	103.458
122.903	949.89	1.9323	0.0802	103.477
122.945	949.89	1.9320	0.0802	103.498
122.987	949.89	1.9317	0.0802	103.518
123.028	949.89	1.9313	0.0801	103.539
123.070	949.89	1.9310	0.0801	103.559
123.112		1.9307	0.0801
123.145		1.9304	0.0801