File: PSO Kinetics/data/softwood-50Kmin_1.txt
Filename	softwood-50Kmin_1
Instrument name	0650-0369 (192.168.1.2)
Operator	ca527
rundate	1/8/2023
Sample name	softwood-50Kmin_1
proceduresegments	Select Gas: Gas 1 ; Ramp 10.00 °C/min to 110.00 °C; Isothermal 30.0 min; Ramp 50.00 °C/min to 900.00 °C; Isothermal 30.0 min; Select Gas: Gas 2 ; Ramp 10.00 °C/min to 950.00 °C; Isothermal 10.0 min; Data Off ; Equilibrate 30.00 °C
[step]
Ramp 10.00 °C/min to 110.00 °C
Time	Temperature	Weight	Weight	Heat Flow
min	°C	%	mg	mW
0.003		99.9970	5.2782
0.037		100.0133	5.2790
0.070	20.06	100.0446	5.2807	-22.949
0.103	20.05	100.0635	5.2817	-22.957
0.137	20.04	100.0621	5.2816	-22.971
0.170	20.03	100.0564	5.2813	-22.991
0.203	20.02	100.0474	5.2809	-23.018
0.237	20.01	100.0352	5.2802	-23.058
0.270	20.02	100.0192	5.2794	-23.121
0.303	20.03	99.9987	5.2783	-23.189
0.337	20.05	99.9741	5.2770	-23.262
0.370	20.08	99.9466	5.2755	-23.334
0.403	20.11	99.9171	5.2740	-23.415
0.437	20.16	99.8867	5.2724	-23.505
0.470	20.23	99.8559	5.2707	-23.604
0.503	20.30	99.8249	5.2691	-23.708
0.537	20.39	99.7941	5.2675	-23.819
0.570	20.48	99.7636	5.2659	-23.933
0.603	20.59	99.7339	5.2643	-24.055
0.637	20.72	99.7055	5.2628	-24.183
0.670	20.85	99.6785	5.2614	-24.322
0.703	21.00	99.6532	5.2600	-24.468
0.737	21.15	99.6301	5.2588	-24.619
0.770	21.33	99.6093	5.2577	-24.771
0.803	21.51	99.5911	5.2568	-24.920
0.837	21.70	99.5753	5.2559	-25.064
0.870	21.91	99.5619	5.2552	-25.200
0.903	22.13	99.5507	5.2546	-25.326
0.937	22.37	99.5411	5.2541	-25.435
0.970	22.61	99.5329	5.2537	-25.526
1.003	22.86	99.5256	5.2533	-25.603
1.037	23.13	99.5189	5.2530	-25.664
1.070	23.41	99.5122	5.2526	-25.706
1.103	23.70	99.5055	5.2522	-25.733
1.137	24.00	99.4985	5.2519	-25.748
1.170	24.31	99.4912	5.2515	-25.754
1.203	24.63	99.4834	5.2511	-25.747
1.237	24.95	99.4752	5.2506	-25.724
1.270	25.28	99.4664	5.2502	-25.673
1.303	25.62	99.4570	5.2497	-25.601
1.337	25.97	99.4470	5.2492	-25.519
1.370	26.32	99.4365	5.2486	-25.435
1.403	26.68	99.4254	5.2480	-25.345
1.437	27.05	99.4138	5.2474	-25.242
1.470	27.42	99.4017	5.2468	-25.129
1.503	27.79	99.3890	5.2461	-25.008
1.537	28.17	99.3757	5.2454	-24.881
1.570	28.55	99.3620	5.2447	-24.744
1.603	28.94	99.3478	5.2439	-24.600
1.637	29.32	99.3331	5.2431	-24.452
1.670	29.72	99.3178	5.2423	-24.298
1.703	30.11	99.3021	5.2415	-24.134
1.737	30.51	99.2858	5.2407	-23.967
1.770	30.90	99.2692	5.2398	-23.796
1.803	31.30	99.2519	5.2389	-23.621
1.837	31.70	99.2342	5.2379	-23.441
1.870	32.10	99.2159	5.2370	-23.256
1.903	32.50	99.1972	5.2360	-23.064
1.937	32.90	99.1779	5.2350	-22.870
1.970	33.30	99.1581	5.2339	-22.672
2.003	33.70	99.1378	5.2328	-22.469
2.037	34.10	99.1170	5.2317	-22.260
2.070	34.50	99.0956	5.2306	-22.044
2.103	34.90	99.0737	5.2295	-21.830
2.137	35.30	99.0511	5.2283	-21.618
2.170	35.70	99.0280	5.2270	-21.405
2.203	36.10	99.0044	5.2258	-21.189
2.237	36.49	98.9802	5.2245	-20.970
2.270	36.89	98.9556	5.2232	-20.750
2.303	37.28	98.9303	5.2219	-20.529
2.337	37.67	98.9044	5.2205	-20.307
2.370	38.06	98.8778	5.2191	-20.082
2.403	38.44	98.8507	5.2177	-19.858
2.437	38.83	98.8229	5.2162	-19.638
2.470	39.21	98.7947	5.2147	-19.419
2.503	39.60	98.7659	5.2132	-19.196
2.537	39.98	98.7365	5.2117	-18.972
2.570	40.35	98.7066	5.2101	-18.748
2.603	40.73	98.6761	5.2085	-18.525
2.637	41.11	98.6453	5.2068	-18.303
2.670	41.48	98.6140	5.2052	-18.081
2.703	41.85	98.5823	5.2035	-17.861
2.737	42.22	98.5500	5.2018	-17.643
2.770	42.58	98.5173	5.2001	-17.420
2.803	42.95	98.4841	5.1983	-17.199
2.837	43.31	98.4506	5.1966	-16.982
2.870	43.67	98.4167	5.1948	-16.772
2.903	44.03	98.3824	5.1930	-16.559
2.937	44.39	98.3476	5.1911	-16.343
2.970	44.75	98.3124	5.1893	-16.129
3.003	45.10	98.2769	5.1874	-15.922
3.037	45.45	98.2411	5.1855	-15.715
3.070	45.80	98.2050	5.1836	-15.511
3.103	46.15	98.1685	5.1817	-15.304
3.137	46.50	98.1316	5.1797	-15.098
3.170	46.85	98.0945	5.1778	-14.895
3.203	47.20	98.0573	5.1758	-14.693
3.237	47.54	98.0198	5.1738	-14.492
3.270	47.89	97.9821	5.1718	-14.292
3.303	48.23	97.9441	5.1698	-14.097
3.337	48.57	97.9059	5.1678	-13.902
3.370	48.91	97.8675	5.1658	-13.707
3.403	49.25	97.8290	5.1638	-13.516
3.437	49.59	97.7905	5.1617	-13.326
3.470	49.93	97.7518	5.1597	-13.135
3.503	50.27	97.7130	5.1576	-12.947
3.537	50.60	97.6740	5.1556	-12.762
3.570	50.94	97.6349	5.1535	-12.577
3.603	51.28	97.5957	5.1514	-12.391
3.637	51.61	97.5565	5.1494	-12.210
3.670	51.95	97.5171	5.1473	-12.032
3.703	52.28	97.4777	5.1452	-11.853
3.737	52.62	97.4382	5.1431	-11.676
3.770	52.95	97.3988	5.1410	-11.500
3.803	53.29	97.3593	5.1390	-11.321
3.837	53.62	97.3199	5.1369	-11.149
3.870	53.95	97.2806	5.1348	-10.977
3.903	54.29	97.2419	5.1328	-10.806
3.937	54.62	97.2038	5.1308	-10.634
3.970	54.96	97.1660	5.1288	-10.466
4.003	55.29	97.1283	5.1268	-10.297
4.037	55.62	97.0906	5.1248	-10.130
4.070	55.96	97.0529	5.1228	-9.963
4.103	56.29	97.0153	5.1208	-9.798
4.137	56.62	96.9775	5.1188	-9.632
4.170	56.96	96.9400	5.1168	-9.470
4.203	57.29	96.9028	5.1149	-9.308
4.237	57.63	96.8658	5.1129	-9.145
4.270	57.97	96.8289	5.1110	-8.986
4.303	58.30	96.7922	5.1090	-8.828
4.337	58.64	96.7557	5.1071	-8.672
4.370	58.97	96.7192	5.1052	-8.515
4.403	59.31	96.6830	5.1033	-8.359
4.437	59.64	96.6470	5.1014	-8.202
4.470	59.98	96.6112	5.0995	-8.046
4.503	60.32	96.5757	5.0976	-7.893
4.537	60.66	96.5404	5.0957	-7.739
4.570	60.99	96.5056	5.0939	-7.585
4.603	61.33	96.4713	5.0921	-7.431
4.637	61.67	96.4375	5.0903	-7.282
4.670	62.01	96.4039	5.0885	-7.132
4.703	62.35	96.3704	5.0868	-6.980
4.737	62.69	96.3371	5.0850	-6.827
4.770	63.03	96.3040	5.0833	-6.677
4.803	63.36	96.2711	5.0815	-6.533
4.837	63.71	96.2386	5.0798	-6.387
4.870	64.05	96.2065	5.0781	-6.240
4.903	64.39	96.1747	5.0764	-6.091
4.937	64.73	96.1432	5.0748	-5.946
4.970	65.07	96.1121	5.0731	-5.799
5.003	65.41	96.0812	5.0715	-5.653
5.037	65.75	96.0506	5.0699	-5.510
5.070	66.09	96.0204	5.0683	-5.368
5.103	66.44	95.9904	5.0667	-5.229
5.137	66.78	95.9609	5.0651	-5.089
5.170	67.12	95.9316	5.0636	-4.947
5.203	67.47	95.9027	5.0621	-4.808
5.237	67.81	95.8742	5.0606	-4.666
5.270	68.15	95.8462	5.0591	-4.528
5.303	68.50	95.8184	5.0576	-4.394
5.337	68.84	95.7910	5.0562	-4.255
5.370	69.19	95.7640	5.0548	-4.118
5.403	69.53	95.7374	5.0534	-3.985
5.437	69.87	95.7111	5.0520	-3.854
5.470	70.22	95.6853	5.0506	-3.722
5.503	70.56	95.6598	5.0493	-3.588
5.537	70.91	95.6346	5.0479	-3.452
5.570	71.25	95.6096	5.0466	-3.319
5.603	71.60	95.5850	5.0453	-3.186
5.637	71.94	95.5610	5.0440	-3.055
5.670	72.29	95.5374	5.0428	-2.929
5.703	72.63	95.5142	5.0416	-2.802
5.737	72.98	95.4913	5.0404	-2.673
5.770	73.32	95.4688	5.0392	-2.543
5.803	73.67	95.4467	5.0380	-2.416
5.837	74.01	95.4249	5.0369	-2.291
5.870	74.36	95.4035	5.0357	-2.162
5.903	74.70	95.3825	5.0346	-2.038
5.937	75.05	95.3619	5.0335	-1.915
5.970	75.39	95.3417	5.0325	-1.791
6.003	75.74	95.3220	5.0314	-1.669
6.037	76.09	95.3025	5.0304	-1.554
6.070	76.43	95.2834	5.0294	-1.438
6.103	76.78	95.2648	5.0284	-1.318
6.137	77.12	95.2465	5.0274	-1.197
6.170	77.47	95.2286	5.0265	-1.080
6.203	77.82	95.2110	5.0256	-0.964
6.237	78.16	95.1938	5.0247	-0.851
6.270	78.51	95.1769	5.0238	-0.741
6.303	78.85	95.1603	5.0229	-0.631
6.337	79.20	95.1441	5.0220	-0.520
6.370	79.54	95.1283	5.0212	-0.413
6.403	79.89	95.1127	5.0204	-0.304
6.437	80.23	95.0976	5.0196	-0.193
6.470	80.58	95.0827	5.0188	-0.083
6.503	80.93	95.0681	5.0180	0.022
6.537	81.27	95.0538	5.0173	0.124
6.570	81.62	95.0399	5.0165	0.224
6.603	81.96	95.0261	5.0158	0.330
6.637	82.31	95.0127	5.0151	0.434
6.670	82.65	94.9996	5.0144	0.533
6.703	83.00	94.9869	5.0137	0.630
6.737	83.34	94.9745	5.0131	0.731
6.770	83.69	94.9623	5.0124	0.828
6.803	84.03	94.9504	5.0118	0.919
6.837	84.38	94.9389	5.0112	1.010
6.870	84.72	94.9277	5.0106	1.105
6.903	85.07	94.9168	5.0100	1.201
6.937	85.41	94.9063	5.0095	1.290
6.970	85.76	94.8958	5.0089	1.376
7.003	86.10	94.8857	5.0084	1.460
7.037	86.45	94.8757	5.0079	1.546
7.070	86.79	94.8661	5.0074	1.630
7.103	87.14	94.8568	5.0069	1.714
7.137	87.48	94.8478	5.0064	1.795
7.170	87.83	94.8390	5.0059	1.882
7.203	88.17	94.8304	5.0055	1.966
7.237	88.52	94.8221	5.0050	2.046
7.270	88.86	94.8139	5.0046	2.124
7.303	89.20	94.8060	5.0042	2.200
7.337	89.55	94.7984	5.0038	2.273
7.370	89.89	94.7910	5.0034	2.342
7.403	90.24	94.7837	5.0030	2.411
7.437	90.58	94.7767	5.0026	2.482
7.470	90.92	94.7698	5.0023	2.550
7.503	91.27	94.7632	5.0019	2.615
7.537	91.61	94.7568	5.0016	2.681
7.570	91.96	94.7507	5.0013	2.747
7.603	92.30	94.7447	5.0010	2.812
7.637	92.64	94.7390	5.0007	2.872
7.670	92.99	94.7333	5.0004	2.931
7.703	93.33	94.7278	5.0001	2.991
7.737	93.67	94.7223	4.9998	3.051
7.770	94.02	94.7170	4.9995	3.110
7.803	94.36	94.7119	4.9992	3.172
7.837	94.71	94.7069	4.9990	3.229
7.870	95.05	94.7021	4.9987	3.281
7.903	95.39	94.6975	4.9985	3.331
7.937	95.73	94.6932	4.9982	3.384
7.970	96.08	94.6889	4.9980	3.437
8.003	96.42	94.6848	4.9978	3.490
8.037	96.77	94.6809	4.9976	3.536
8.070	97.11	94.6772	4.9974	3.582
8.103	97.45	94.6735	4.9972	3.625
8.137	97.79	94.6698	4.9970	3.666
8.170	98.14	94.6662	4.9968	3.708
8.203	98.48	94.6628	4.9966	3.753
8.237	98.82	94.6594	4.9965	3.796
8.270	99.17	94.6562	4.9963	3.835
8.303	99.51	94.6530	4.9961	3.877
8.337	99.85	94.6499	4.9959	3.917
8.370	100.20	94.6468	4.9958	3.953
8.403	100.54	94.6438	4.9956	3.985
8.437	100.88	94.6410	4.9955	4.019
8.470	101.22	94.6383	4.9953	4.054
8.503	101.57	94.6357	4.9952	4.085
8.537	101.91	94.6332	4.9951	4.115
8.570	102.25	94.6307	4.9949	4.141
8.603	102.60	94.6283	4.9948	4.166
8.637	102.94	94.6260	4.9947	4.190
8.670	103.28	94.6237	4.9946	4.218
8.703	103.63	94.6214	4.9944	4.243
8.737	103.97	94.6191	4.9943	4.267
8.770	104.31	94.6168	4.9942	4.286
8.803	104.65	94.6146	4.9941	4.302
8.837	105.00	94.6126	4.9940	4.319
8.870	105.34	94.6106	4.9939	4.338
8.903	105.68	94.6087	4.9938	4.359
8.920	105.85	94.6077	4.9937	4.370

[step]
Isothermal 30.0 min
Time	Temperature	Weight	Weight	Heat Flow
min	°C	%	mg	mW
8.928	105.94	94.6072	4.9937	4.375
9.037	107.05	94.6011	4.9934	4.438
9.145	108.13	94.5953	4.9931	4.572
9.253	109.14	94.5896	4.9928	4.825
9.362	110.06	94.5841	4.9925	5.188
9.470	110.88	94.5787	4.9922	5.664
9.578	111.57	94.5733	4.9919	6.246
9.687	112.15	94.5681	4.9916	6.898
9.795	112.59	94.5636	4.9914	7.629
9.903	112.91	94.5588	4.9911	8.414
10.012	113.12	94.5538	4.9909	9.197
10.120	113.22	94.5486	4.9906	9.964
10.228	113.24	94.5437	4.9903	10.683
10.337	113.20	94.5386	4.9901	11.316
10.445	113.12	94.5343	4.9898	11.851
10.553	113.01	94.5306	4.9897	12.297
10.662	112.89	94.5268	4.9895	12.659
10.770	112.75	94.5229	4.9892	12.958
10.878	112.62	94.5197	4.9891	13.196
10.987	112.50	94.5169	4.9889	13.374
11.095	112.38	94.5143	4.9888	13.504
11.203	112.27	94.5123	4.9887	13.588
11.312	112.19	94.5100	4.9886	13.635
11.420	112.12	94.5081	4.9885	13.653
11.528	112.07	94.5060	4.9884	13.657
11.637	112.05	94.5041	4.9883	13.644
11.745	112.04	94.5022	4.9882	13.603
11.853	112.05	94.5004	4.9881	13.553
11.962	112.08	94.4980	4.9879	13.479
12.070	112.12	94.4986	4.9880	13.412
12.178	112.17	94.4985	4.9880	13.346
12.287	112.23	94.4977	4.9879	13.286
12.395	112.30	94.4969	4.9879	13.233
12.503	112.38	94.4960	4.9878	13.181
12.612	112.46	94.4948	4.9878	13.148
12.720	112.54	94.4935	4.9877	13.117
12.828	112.62	94.4920	4.9876	13.090
12.937	112.70	94.4906	4.9875	13.069
13.045	112.77	94.4891	4.9875	13.055
13.153	112.84	94.4876	4.9874	13.050
13.262	112.90	94.4864	4.9873	13.049
13.370	112.96	94.4851	4.9873	13.052
13.478	113.02	94.4836	4.9872	13.061
13.587	113.06	94.4820	4.9871	13.077
13.695	113.10	94.4804	4.9870	13.100
13.803	113.14	94.4790	4.9869	13.123
13.912	113.17	94.4777	4.9869	13.145
14.020	113.19	94.4763	4.9868	13.168
14.128	113.22	94.4748	4.9867	13.192
14.237	113.23	94.4733	4.9866	13.215
14.345	113.25	94.4718	4.9865	13.232
14.453	113.25	94.4707	4.9865	13.251
14.562	113.26	94.4695	4.9864	13.265
14.670	113.27	94.4686	4.9864	13.277
14.778	113.27	94.4672	4.9863	13.287
14.887	113.28	94.4659	4.9862	13.299
14.995	113.28	94.4645	4.9862	13.301
15.103	113.29	94.4632	4.9861	13.306
15.212	113.29	94.4621	4.9860	13.308
15.320	113.29	94.4609	4.9860	13.308
15.428	113.30	94.4596	4.9859	13.304
15.537	113.30	94.4584	4.9858	13.299
15.645	113.31	94.4576	4.9858	13.293
15.753	113.31	94.4566	4.9857	13.279
15.862	113.32	94.4556	4.9857	13.272
15.970	113.33	94.4548	4.9857	13.261
16.078	113.33	94.4537	4.9856	13.251
16.187	113.34	94.4525	4.9855	13.242
16.295	113.35	94.4514	4.9855	13.226
16.403	113.36	94.4503	4.9854	13.213
16.512	113.37	94.4488	4.9853	13.205
16.620	113.37	94.4480	4.9853	13.190
16.728	113.38	94.4469	4.9852	13.180
16.837	113.39	94.4457	4.9852	13.168
16.945	113.40	94.4449	4.9851	13.157
17.053	113.41	94.4438	4.9851	13.146
17.162	113.41	94.4428	4.9850	13.138
17.270	113.42	94.4423	4.9850	13.131
17.378	113.42	94.4416	4.9850	13.119
17.487	113.43	94.4406	4.9849	13.111
17.595	113.43	94.4396	4.9849	13.101
17.703	113.44	94.4388	4.9848	13.090
17.812	113.44	94.4380	4.9848	13.078
17.920	113.44	94.4371	4.9847	13.070
18.028	113.45	94.4359	4.9847	13.064
18.137	113.45	94.4350	4.9846	13.059
18.245	113.45	94.4341	4.9846	13.053
18.353	113.45	94.4332	4.9845	13.043
18.462	113.46	94.4323	4.9845	13.032
18.570	113.46	94.4311	4.9844	13.022
18.678	113.46	94.4303	4.9844	13.015
18.787	113.46	94.4295	4.9843	13.006
18.895	113.46	94.4288	4.9843	12.995
19.003	113.46	94.4282	4.9842	12.984
19.112	113.46	94.4275	4.9842	12.976
19.220	113.46	94.4267	4.9842	12.969
19.328	113.46	94.4258	4.9841	12.962
19.437	113.46	94.4250	4.9841	12.952
19.545	113.46	94.4240	4.9840	12.940
19.653	113.46	94.4232	4.9840	12.929
19.762	113.46	94.4226	4.9840	12.914
19.870	113.46	94.4219	4.9839	12.904
19.978	113.46	94.4208	4.9839	12.893
20.087	113.46	94.4200	4.9838	12.883
20.195	113.46	94.4193	4.9838	12.873
20.303	113.46	94.4186	4.9837	12.862
20.412	113.46	94.4179	4.9837	12.850
20.520	113.46	94.4171	4.9837	12.838
20.628	113.46	94.4162	4.9836	12.827
20.737	113.46	94.4154	4.9836	12.817
20.845	113.46	94.4144	4.9835	12.809
20.953	113.46	94.4138	4.9835	12.798
21.062	113.46	94.4132	4.9835	12.786
21.170	113.46	94.4126	4.9834	12.775
21.278	113.46	94.4119	4.9834	12.764
21.387	113.46	94.4111	4.9833	12.754
21.495	113.46	94.4103	4.9833	12.745
21.603	113.46	94.4096	4.9833	12.735
21.712	113.46	94.4088	4.9832	12.727
21.820	113.46	94.4081	4.9832	12.717
21.928	113.46	94.4075	4.9832	12.707
22.037	113.46	94.4069	4.9831	12.696
22.145	113.46	94.4064	4.9831	12.682
22.253	113.46	94.4056	4.9831	12.675
22.362	113.46	94.4048	4.9830	12.666
22.470	113.46	94.4043	4.9830	12.649
22.578	113.45	94.4034	4.9829	12.639
22.687	113.45	94.4026	4.9829	12.630
22.795	113.45	94.4018	4.9829	12.621
22.903	113.45	94.4010	4.9828	12.612
23.012	113.45	94.4001	4.9828	12.603
23.120	113.45	94.3995	4.9827	12.590
23.228	113.45	94.3990	4.9827	12.581
23.337	113.45	94.3982	4.9827	12.571
23.445	113.45	94.3975	4.9826	12.563
23.553	113.45	94.3967	4.9826	12.545
23.662	113.44	94.3960	4.9825	12.537
23.770	113.44	94.3953	4.9825	12.527
23.878	113.44	94.3948	4.9825	12.518
23.987	113.44	94.3940	4.9824	12.507
24.095	113.44	94.3932	4.9824	12.498
24.203	113.44	94.3924	4.9824	12.485
24.312	113.44	94.3918	4.9823	12.475
24.420	113.44	94.3912	4.9823	12.462
24.528	113.44	94.3907	4.9823	12.450
24.637	113.44	94.3900	4.9822	12.440
24.745	113.43	94.3892	4.9822	12.431
24.853	113.43	94.3886	4.9822	12.422
24.962	113.43	94.3876	4.9821	12.411
25.070	113.43	94.3869	4.9821	12.401
25.178	113.43	94.3865	4.9820	12.387
25.287	113.43	94.3857	4.9820	12.377
25.395	113.43	94.3849	4.9820	12.370
25.503	113.43	94.3842	4.9819	12.359
25.612	113.43	94.3835	4.9819	12.349
25.720	113.43	94.3830	4.9819	12.342
25.828	113.43	94.3822	4.9818	12.329
25.937	113.43	94.3817	4.9818	12.315
26.045	113.42	94.3811	4.9818	12.305
26.153	113.42	94.3802	4.9817	12.298
26.262	113.42	94.3796	4.9817	12.289
26.370	113.42	94.3787	4.9816	12.279
26.478	113.42	94.3782	4.9816	12.267
26.587	113.42	94.3775	4.9816	12.257
26.695	113.42	94.3771	4.9815	12.249
26.803	113.42	94.3767	4.9815	12.239
26.912	113.41	94.3762	4.9815	12.229
27.020	113.41	94.3756	4.9815	12.219
27.128	113.41	94.3750	4.9814	12.209
27.237	113.41	94.3743	4.9814	12.200
27.345	113.41	94.3737	4.9814	12.192
27.453	113.41	94.3732	4.9813	12.183
27.562	113.41	94.3728	4.9813	12.174
27.670	113.41	94.3721	4.9813	12.166
27.778	113.41	94.3716	4.9813	12.158
27.887	113.41	94.3711	4.9812	12.150
27.995	113.40	94.3707	4.9812	12.139
28.103	113.40	94.3700	4.9812	12.125
28.212	113.40	94.3695	4.9812	12.117
28.320	113.40	94.3689	4.9811	12.110
28.428	113.40	94.3684	4.9811	12.103
28.537	113.40	94.3678	4.9811	12.093
28.645	113.40	94.3671	4.9810	12.081
28.753	113.40	94.3665	4.9810	12.074
28.862	113.40	94.3659	4.9810	12.067
28.970	113.40	94.3654	4.9809	12.059
29.078	113.40	94.3646	4.9809	12.049
29.187	113.39	94.3638	4.9808	12.039
29.295	113.39	94.3630	4.9808	12.030
29.403	113.39	94.3626	4.9808	12.018
29.512	113.39	94.3619	4.9808	12.007
29.620	113.39	94.3610	4.9807	11.999
29.728	113.39	94.3601	4.9807	11.992
29.837	113.39	94.3594	4.9806	11.985
29.945	113.39	94.3580	4.9805	11.979
30.053	113.39	94.3553	4.9804	11.974
30.162	113.39	94.3516	4.9802	11.967
30.270	113.39	94.3484	4.9800	11.959
30.378	113.39	94.3458	4.9799	11.953
30.487	113.38	94.3433	4.9798	11.947
30.595	113.39	94.3418	4.9797	11.940
30.703	113.38	94.3405	4.9796	11.932
30.812	113.38	94.3395	4.9796	11.928
30.920	113.38	94.3387	4.9795	11.921
31.028	113.38	94.3379	4.9795	11.915
31.137	113.38	94.3369	4.9794	11.907
31.245	113.38	94.3363	4.9794	11.904
31.353	113.38	94.3358	4.9794	11.895
31.462	113.38	94.3353	4.9793	11.890
31.570	113.38	94.3347	4.9793	11.881
31.678	113.38	94.3337	4.9793	11.870
[...]
90.153	947.77	-8.3770	-0.4422	62.113
90.195	947.89	-8.3775	-0.4422	63.572
90.237	948.00	-8.3780	-0.4422	65.015
90.278	948.09	-8.3784	-0.4422	66.420
90.320	948.17	-8.3790	-0.4423	67.788
90.362	948.23	-8.3795	-0.4423	69.107
90.403	948.29	-8.3798	-0.4423	70.370
90.445	948.33	-8.3801	-0.4423	71.569
90.487	948.37	-8.3805	-0.4424	72.715
90.528	948.41	-8.3808	-0.4424	73.802
90.570	948.44	-8.3811	-0.4424	74.820
90.612	948.47	-8.3813	-0.4424	75.770
90.653	948.49	-8.3814	-0.4424	76.662
90.695	948.52	-8.3815	-0.4424	77.505
90.737	948.54	-8.3817	-0.4424	78.297
90.778	948.56	-8.3819	-0.4424	79.050
90.820	948.59	-8.3821	-0.4424	79.752
90.862	948.61	-8.3822	-0.4424	80.407
90.903	948.63	-8.3823	-0.4424	81.026
90.945	948.66	-8.3824	-0.4424	81.613
90.987	948.68	-8.3825	-0.4425	82.181
91.028	948.71	-8.3827	-0.4425	82.728
91.070	948.73	-8.3829	-0.4425	83.241
91.112	948.76	-8.3832	-0.4425	83.744
91.153	948.78	-8.3835	-0.4425	84.235
91.195	948.81	-8.3837	-0.4425	84.697
91.237	948.83	-8.3839	-0.4425	85.142
91.278	948.86	-8.3840	-0.4425	85.581
91.320	948.88	-8.3842	-0.4425	86.005
91.362	948.91	-8.3843	-0.4426	86.417
91.403	948.93	-8.3845	-0.4426	86.822
91.445	948.95	-8.3847	-0.4426	87.213
91.487	948.98	-8.3850	-0.4426	87.601
91.528	949.00	-8.3853	-0.4426	87.986
91.570	949.02	-8.3856	-0.4426	88.368
91.612	949.05	-8.3858	-0.4426	88.743
91.653	949.07	-8.3859	-0.4426	89.102
91.695	949.09	-8.3861	-0.4426	89.448
91.737	949.11	-8.3863	-0.4427	89.797
91.778	949.13	-8.3865	-0.4427	90.137
91.820	949.15	-8.3867	-0.4427	90.460
91.862	949.16	-8.3869	-0.4427	90.778
91.903	949.18	-8.3872	-0.4427	91.095
91.945	949.20	-8.3875	-0.4427	91.410
91.987	949.22	-8.3878	-0.4427	91.711
92.028	949.23	-8.3882	-0.4428	92.002
92.070	949.25	-8.3886	-0.4428	92.276
92.112	949.26	-8.3888	-0.4428	92.537
92.153	949.28	-8.3891	-0.4428	92.800
92.195	949.29	-8.3894	-0.4428	93.056
92.237	949.31	-8.3898	-0.4428	93.309
92.278	949.32	-8.3902	-0.4429	93.562
92.320	949.34	-8.3905	-0.4429	93.815
92.362	949.35	-8.3908	-0.4429	94.052
92.403	949.36	-8.3911	-0.4429	94.287
92.445	949.37	-8.3914	-0.4429	94.520
92.487	949.39	-8.3918	-0.4429	94.731
92.528	949.40	-8.3921	-0.4430	94.933
92.570	949.41	-8.3924	-0.4430	95.134
92.612	949.42	-8.3927	-0.4430	95.336
92.653	949.43	-8.3931	-0.4430	95.522
92.695	949.44	-8.3935	-0.4430	95.705
92.737	949.45	-8.3939	-0.4431	95.895
92.778	949.46	-8.3943	-0.4431	96.074
92.820	949.47	-8.3946	-0.4431	96.247
92.862	949.48	-8.3949	-0.4431	96.421
92.903	949.49	-8.3952	-0.4431	96.585
92.945	949.50	-8.3955	-0.4431	96.750
92.987	949.51	-8.3957	-0.4432	96.916
93.028	949.52	-8.3960	-0.4432	97.069
93.070	949.52	-8.3963	-0.4432	97.221
93.112	949.53	-8.3966	-0.4432	97.376
93.153	949.54	-8.3970	-0.4432	97.519
93.195	949.55	-8.3974	-0.4432	97.666
93.237	949.56	-8.3978	-0.4433	97.808
93.278	949.56	-8.3982	-0.4433	97.943
93.320	949.57	-8.3985	-0.4433	98.085
93.362	949.58	-8.3986	-0.4433	98.216
93.403	949.58	-8.3990	-0.4433	98.333
93.445	949.59	-8.3993	-0.4433	98.458
93.487	949.60	-8.3996	-0.4434	98.580
93.528	949.60	-8.3999	-0.4434	98.689
93.570	949.61	-8.4002	-0.4434	98.800
93.612	949.62	-8.4005	-0.4434	98.908
93.653	949.62	-8.4009	-0.4434	99.011
93.695	949.63	-8.4012	-0.4434	99.102
93.737	949.63	-8.4016	-0.4435	99.195
93.778	949.64	-8.4019	-0.4435	99.291
93.820	949.65	-8.4023	-0.4435	99.379
93.862	949.65	-8.4026	-0.4435	99.467
93.903	949.66	-8.4029	-0.4435	99.559
93.945	949.66	-8.4032	-0.4435	99.649
93.987	949.67	-8.4034	-0.4436	99.745
94.028	949.67	-8.4037	-0.4436	99.840
94.070	949.68	-8.4041	-0.4436	99.931
94.112	949.68	-8.4044	-0.4436	100.013
94.153	949.69	-8.4047	-0.4436	100.087
94.195	949.69	-8.4050	-0.4436	100.156
94.237	949.69	-8.4054	-0.4437	100.216
94.278	949.70	-8.4056	-0.4437	100.278
94.320	949.70	-8.4058	-0.4437	100.343
94.362	949.71	-8.4062	-0.4437	100.408
94.403	949.71	-8.4067	-0.4437	100.473
94.445	949.71	-8.4071	-0.4438	100.536
94.487	949.72	-8.4076	-0.4438	100.603
94.528	949.72	-8.4081	-0.4438	100.671
94.570	949.73	-8.4086	-0.4438	100.733
94.612	949.73	-8.4090	-0.4439	100.786
94.653	949.73	-8.4093	-0.4439	100.829
94.695	949.74	-8.4095	-0.4439	100.886
94.737	949.74	-8.4097	-0.4439	100.950
94.778	949.74	-8.4099	-0.4439	100.994
94.820	949.75	-8.4101	-0.4439	101.039
94.862	949.75	-8.4102	-0.4439	101.088
94.903	949.75	-8.4105	-0.4439	101.134
94.945	949.75	-8.4109	-0.4440	101.187
94.987	949.76	-8.4113	-0.4440	101.240
95.028	949.76	-8.4116	-0.4440	101.285
95.070	949.76	-8.4120	-0.4440	101.335
95.112	949.76	-8.4123	-0.4440	101.389
95.153	949.77	-8.4126	-0.4440	101.438
95.195	949.77	-8.4128	-0.4441	101.483
95.237	949.77	-8.4130	-0.4441	101.524
95.278	949.78	-8.4134	-0.4441	101.558
95.320	949.78	-8.4138	-0.4441	101.595
95.362	949.78	-8.4143	-0.4441	101.639
95.403	949.78	-8.4148	-0.4442	101.678
95.445	949.78	-8.4152	-0.4442	101.712
95.487	949.79	-8.4157	-0.4442	101.748
95.528	949.79	-8.4162	-0.4442	101.787
95.570	949.79	-8.4167	-0.4443	101.830
95.612	949.79	-8.4172	-0.4443	101.868
95.653	949.79	-8.4177	-0.4443	101.897
95.695	949.80	-8.4181	-0.4443	101.930
95.737	949.80	-8.4184	-0.4444	101.964
95.778	949.80	-8.4186	-0.4444	101.989
95.820	949.80	-8.4191	-0.4444	102.010
95.862	949.80	-8.4195	-0.4444	102.034
95.903	949.81	-8.4199	-0.4444	102.064
95.945	949.81	-8.4203	-0.4445	102.089
95.987	949.81	-8.4207	-0.4445	102.113
96.028	949.81	-8.4212	-0.4445	102.141
96.070	949.81	-8.4217	-0.4445	102.169
96.112	949.82	-8.4221	-0.4445	102.195
96.153	949.82	-8.4226	-0.4446	102.221
96.195	949.82	-8.4231	-0.4446	102.246
96.237	949.82	-8.4236	-0.4446	102.269
96.278	949.82	-8.4240	-0.4447	102.294
96.320	949.82	-8.4246	-0.4447	102.320
96.362	949.82	-8.4251	-0.4447	102.345
96.403	949.83	-8.4256	-0.4447	102.367
96.445	949.83	-8.4260	-0.4448	102.386
96.487	949.83	-8.4263	-0.4448	102.410
96.528	949.83	-8.4267	-0.4448	102.438
96.570	949.83	-8.4271	-0.4448	102.459
96.612	949.83	-8.4274	-0.4448	102.476
96.653	949.83	-8.4279	-0.4449	102.495
96.695	949.83	-8.4283	-0.4449	102.517
96.737	949.84	-8.4286	-0.4449	102.543
96.778	949.84	-8.4289	-0.4449	102.570
96.820	949.84	-8.4292	-0.4449	102.590
96.862	949.84	-8.4295	-0.4449	102.605
96.903	949.84	-8.4298	-0.4450	102.616
96.945	949.84	-8.4301	-0.4450	102.627
96.987	949.84	-8.4305	-0.4450	102.640
97.028	949.84	-8.4309	-0.4450	102.654
97.070	949.84	-8.4312	-0.4450	102.668
97.112	949.85	-8.4316	-0.4450	102.685
97.153	949.85	-8.4319	-0.4451	102.700
97.195	949.85	-8.4322	-0.4451	102.714
97.237	949.85	-8.4327	-0.4451	102.727
97.278	949.85	-8.4331	-0.4451	102.739
97.320	949.85	-8.4334	-0.4451	102.754
97.362	949.85	-8.4337	-0.4452	102.770
97.403	949.85	-8.4341	-0.4452	102.784
97.445	949.85	-8.4344	-0.4452	102.796
97.487	949.85	-8.4347	-0.4452	102.809
97.528	949.86	-8.4351	-0.4452	102.824
97.570	949.86	-8.4354	-0.4453	102.835
97.612	949.86	-8.4358	-0.4453	102.846
97.653	949.86	-8.4362	-0.4453	102.860
97.695	949.86	-8.4367	-0.4453	102.873
97.737	949.86	-8.4370	-0.4453	102.883
97.778	949.86	-8.4373	-0.4453	102.893
97.820	949.86	-8.4377	-0.4454	102.905
97.862	949.86	-8.4382	-0.4454	102.919
97.903	949.86	-8.4387	-0.4454	102.930
97.945	949.86	-8.4392	-0.4455	102.940
97.987	949.86	-8.4396	-0.4455	102.951
98.028	949.87	-8.4399	-0.4455	102.962
98.070	949.87	-8.4403	-0.4455	102.971
98.112	949.87	-8.4406	-0.4455	102.981
98.153	949.87	-8.4408	-0.4455	102.993
98.195	949.87	-8.4412	-0.4456	103.002
98.237	949.87	-8.4415	-0.4456	103.011
98.278	949.87	-8.4419	-0.4456	103.021
98.320	949.87	-8.4424	-0.4456	103.031
98.362	949.87	-8.4428	-0.4456	103.048
98.403	949.87	-8.4431	-0.4457	103.065
98.445	949.87	-8.4435	-0.4457	103.076
98.487	949.87	-8.4440	-0.4457	103.085
98.528	949.87	-8.4445	-0.4457	103.094
98.570	949.87	-8.4449	-0.4458	103.102
98.612	949.87	-8.4453	-0.4458	103.108
98.653	949.87	-8.4457	-0.4458	103.115
98.695	949.87	-8.4462	-0.4458	103.123
98.737	949.87	-8.4467	-0.4458	103.135
98.778	949.87	-8.4471	-0.4459	103.150
98.820	949.87	-8.4475	-0.4459	103.165
98.862	949.87	-8.4478	-0.4459	103.176
98.903	949.87	-8.4482	-0.4459	103.183
98.945	949.88	-8.4487	-0.4459	103.189
98.987	949.88	-8.4491	-0.4460	103.195
99.028	949.88	-8.4495	-0.4460	103.203
99.070	949.88	-8.4499	-0.4460	103.209
99.112	949.88	-8.4502	-0.4460	103.216
99.153	949.88	-8.4506	-0.4460	103.225
99.195	949.88	-8.4509	-0.4461	103.234
99.237	949.88	-8.4511	-0.4461	103.244
99.278	949.88	-8.4514	-0.4461	103.251
99.320	949.88	-8.4518	-0.4461	103.257
99.362	949.88	-8.4521	-0.4461	103.259
99.403	949.88	-8.4524	-0.4461	103.263
99.445	949.88	-8.4527	-0.4462	103.268
99.487	949.88	-8.4529	-0.4462	103.274
99.528	949.88	-8.4533	-0.4462	103.280
99.570	949.88	-8.4538	-0.4462	103.289
99.612	949.88	-8.4542	-0.4462	103.297
99.653	949.88	-8.4544	-0.4463	103.305
99.695		-8.4547	-0.4463
99.728		-8.4550	-0.4463