File: PSO Kinetics/data/softwood-5Kmin_3.txt
Filename	softwood-5Kmin_3
Instrument name	0650-0369 (192.168.1.2)
Operator	ca527
rundate	1/10/2023
Sample name	softwood-5Kmin_3
proceduresegments	Select Gas: Gas 1 ; Ramp 10.00 °C/min to 110.00 °C; Isothermal 30.0 min; Ramp 5.00 °C/min to 900.00 °C; Isothermal 30.0 min; Select Gas: Gas 2 ; Ramp 10.00 °C/min to 950.00 °C; Isothermal 10.0 min; Data Off ; Equilibrate 30.00 °C
[step]
Ramp 10.00 °C/min to 110.00 °C
Time	Temperature	Weight	Weight	Heat Flow
min	°C	%	mg	mW
0.003		99.9950	3.3248
0.037		99.9925	3.3248
0.070	22.15	100.0158	3.3255	-25.946
0.103	22.30	100.0125	3.3254	-25.858
0.137	22.45	99.9973	3.3249	-25.779
0.170	22.60	99.9811	3.3244	-25.709
0.203	22.75	99.9640	3.3238	-25.643
0.237	22.89	99.9461	3.3232	-25.579
0.270	23.03	99.9273	3.3226	-25.517
0.303	23.17	99.9073	3.3219	-25.460
0.337	23.31	99.8857	3.3212	-25.403
0.370	23.45	99.8621	3.3204	-25.350
0.403	23.59	99.8368	3.3196	-25.297
0.437	23.72	99.8100	3.3187	-25.250
0.470	23.86	99.7815	3.3177	-25.207
0.503	24.01	99.7514	3.3167	-25.168
0.537	24.15	99.7191	3.3157	-25.128
0.570	24.31	99.6849	3.3145	-25.097
0.603	24.46	99.6490	3.3133	-25.070
0.637	24.62	99.6118	3.3121	-25.043
0.670	24.79	99.5736	3.3108	-25.016
0.703	24.97	99.5350	3.3095	-24.995
0.737	25.15	99.4963	3.3083	-24.977
0.770	25.34	99.4579	3.3070	-24.962
0.803	25.53	99.4201	3.3057	-24.942
0.837	25.73	99.3832	3.3045	-24.916
0.870	25.94	99.3473	3.3033	-24.886
0.903	26.15	99.3126	3.3022	-24.848
0.937	26.37	99.2789	3.3010	-24.803
0.970	26.60	99.2466	3.3000	-24.752
1.003	26.83	99.2155	3.2989	-24.687
1.037	27.07	99.1854	3.2979	-24.608
1.070	27.32	99.1562	3.2970	-24.524
1.103	27.58	99.1277	3.2960	-24.429
1.137	27.84	99.0997	3.2951	-24.315
1.170	28.12	99.0722	3.2942	-24.190
1.203	28.39	99.0451	3.2933	-24.056
1.237	28.68	99.0182	3.2924	-23.912
1.270	28.97	98.9913	3.2915	-23.754
1.303	29.26	98.9643	3.2906	-23.581
1.337	29.57	98.9370	3.2897	-23.401
1.370	29.87	98.9095	3.2888	-23.213
1.403	30.19	98.8818	3.2878	-23.020
1.437	30.51	98.8538	3.2869	-22.811
1.470	30.83	98.8255	3.2860	-22.592
1.503	31.16	98.7969	3.2850	-22.366
1.537	31.49	98.7678	3.2840	-22.136
1.570	31.83	98.7384	3.2831	-21.899
1.603	32.17	98.7086	3.2821	-21.655
1.637	32.52	98.6784	3.2811	-21.406
1.670	32.86	98.6479	3.2801	-21.154
1.703	33.21	98.6174	3.2790	-20.896
1.737	33.57	98.5868	3.2780	-20.633
1.770	33.92	98.5559	3.2770	-20.368
1.803	34.28	98.5248	3.2760	-20.101
1.837	34.64	98.4933	3.2749	-19.831
1.870	35.01	98.4617	3.2739	-19.553
1.903	35.37	98.4299	3.2728	-19.274
1.937	35.74	98.3979	3.2717	-18.993
1.970	36.11	98.3658	3.2707	-18.712
2.003	36.48	98.3333	3.2696	-18.427
2.037	36.85	98.3004	3.2685	-18.143
2.070	37.22	98.2673	3.2674	-17.858
2.103	37.60	98.2340	3.2663	-17.568
2.137	37.97	98.2004	3.2652	-17.273
2.170	38.35	98.1664	3.2640	-16.982
2.203	38.72	98.1323	3.2629	-16.692
2.237	39.10	98.0980	3.2618	-16.399
2.270	39.47	98.0636	3.2606	-16.105
2.303	39.85	98.0289	3.2595	-15.814
2.337	40.22	97.9941	3.2583	-15.522
2.370	40.60	97.9591	3.2571	-15.229
2.403	40.97	97.9238	3.2560	-14.940
2.437	41.35	97.8885	3.2548	-14.648
2.470	41.73	97.8529	3.2536	-14.356
2.503	42.10	97.8172	3.2524	-14.065
2.537	42.47	97.7814	3.2512	-13.777
2.570	42.85	97.7453	3.2500	-13.490
2.603	43.22	97.7091	3.2488	-13.204
2.637	43.59	97.6728	3.2476	-12.919
2.670	43.96	97.6364	3.2464	-12.635
2.703	44.33	97.6001	3.2452	-12.350
2.737	44.70	97.5635	3.2440	-12.066
2.770	45.07	97.5268	3.2428	-11.790
2.803	45.44	97.4900	3.2416	-11.515
2.837	45.80	97.4531	3.2403	-11.241
2.870	46.17	97.4162	3.2391	-10.967
2.903	46.54	97.3792	3.2379	-10.696
2.937	46.90	97.3423	3.2366	-10.420
2.970	47.27	97.3053	3.2354	-10.149
3.003	47.63	97.2683	3.2342	-9.879
3.037	47.99	97.2314	3.2330	-9.615
3.070	48.35	97.1946	3.2317	-9.352
3.103	48.71	97.1577	3.2305	-9.095
3.137	49.06	97.1209	3.2293	-8.839
3.170	49.42	97.0842	3.2281	-8.585
3.203	49.78	97.0476	3.2268	-8.328
3.237	50.13	97.0113	3.2256	-8.080
3.270	50.49	96.9750	3.2244	-7.833
3.303	50.84	96.9389	3.2232	-7.584
3.337	51.20	96.9030	3.2220	-7.333
3.370	51.55	96.8672	3.2208	-7.087
3.403	51.90	96.8315	3.2197	-6.847
3.437	52.25	96.7961	3.2185	-6.610
3.470	52.60	96.7609	3.2173	-6.372
3.503	52.95	96.7259	3.2161	-6.132
3.537	53.29	96.6912	3.2150	-5.893
3.570	53.64	96.6568	3.2138	-5.661
3.603	53.99	96.6227	3.2127	-5.436
3.637	54.34	96.5888	3.2116	-5.210
3.670	54.68	96.5552	3.2105	-4.984
3.703	55.03	96.5218	3.2094	-4.759
3.737	55.37	96.4887	3.2083	-4.537
3.770	55.72	96.4558	3.2072	-4.318
3.803	56.06	96.4232	3.2061	-4.098
3.837	56.41	96.3909	3.2050	-3.883
3.870	56.75	96.3588	3.2039	-3.667
3.903	57.09	96.3270	3.2029	-3.453
3.937	57.44	96.2958	3.2018	-3.242
3.970	57.78	96.2649	3.2008	-3.034
4.003	58.12	96.2346	3.1998	-2.825
4.037	58.46	96.2046	3.1988	-2.616
4.070	58.81	96.1751	3.1978	-2.412
4.103	59.15	96.1460	3.1969	-2.210
4.137	59.49	96.1173	3.1959	-2.010
4.170	59.83	96.0890	3.1950	-1.807
4.203	60.17	96.0611	3.1940	-1.609
4.237	60.51	96.0335	3.1931	-1.415
4.270	60.85	96.0062	3.1922	-1.223
4.303	61.20	95.9792	3.1913	-1.031
4.337	61.54	95.9527	3.1904	-0.841
4.370	61.88	95.9266	3.1896	-0.655
4.403	62.22	95.9009	3.1887	-0.466
4.437	62.56	95.8755	3.1879	-0.280
4.470	62.90	95.8505	3.1870	-0.098
4.503	63.24	95.8259	3.1862	0.081
4.537	63.58	95.8016	3.1854	0.262
4.570	63.92	95.7778	3.1846	0.443
4.603	64.27	95.7545	3.1838	0.623
4.637	64.61	95.7317	3.1831	0.797
4.670	64.95	95.7094	3.1823	0.967
4.703	65.29	95.6874	3.1816	1.140
4.737	65.63	95.6657	3.1809	1.314
4.770	65.97	95.6445	3.1802	1.485
4.803	66.31	95.6237	3.1795	1.651
4.837	66.66	95.6034	3.1788	1.818
4.870	67.00	95.5835	3.1782	1.983
4.903	67.34	95.5640	3.1775	2.144
4.937	67.68	95.5449	3.1769	2.306
4.970	68.02	95.5263	3.1763	2.467
5.003	68.37	95.5080	3.1756	2.623
5.037	68.71	95.4899	3.1750	2.778
5.070	69.05	95.4722	3.1745	2.931
5.103	69.40	95.4549	3.1739	3.083
5.137	69.74	95.4380	3.1733	3.232
5.170	70.08	95.4217	3.1728	3.380
5.203	70.43	95.4058	3.1723	3.529
5.237	70.77	95.3902	3.1717	3.677
5.270	71.12	95.3749	3.1712	3.823
5.303	71.46	95.3600	3.1707	3.966
5.337	71.80	95.3455	3.1702	4.108
5.370	72.15	95.3312	3.1698	4.248
5.403	72.49	95.3174	3.1693	4.391
5.437	72.84	95.3039	3.1689	4.527
5.470	73.18	95.2907	3.1684	4.661
5.503	73.53	95.2777	3.1680	4.793
5.537	73.87	95.2649	3.1676	4.922
5.570	74.22	95.2525	3.1672	5.052
5.603	74.56	95.2404	3.1668	5.181
5.637	74.91	95.2287	3.1664	5.312
5.670	75.25	95.2174	3.1660	5.435
5.703	75.60	95.2065	3.1656	5.556
5.737	75.94	95.1959	3.1653	5.676
5.770	76.29	95.1855	3.1649	5.798
5.803	76.64	95.1754	3.1646	5.918
5.837	76.98	95.1655	3.1643	6.037
5.870	77.33	95.1560	3.1639	6.154
5.903	77.67	95.1468	3.1636	6.268
5.937	78.02	95.1379	3.1633	6.382
5.970	78.37	95.1291	3.1631	6.495
6.003	78.71	95.1206	3.1628	6.606
6.037	79.06	95.1124	3.1625	6.716
6.070	79.41	95.1045	3.1622	6.823
6.103	79.75	95.0968	3.1620	6.927
6.137	80.10	95.0894	3.1617	7.029
6.170	80.45	95.0822	3.1615	7.133
6.203	80.79	95.0752	3.1613	7.233
6.237	81.14	95.0684	3.1610	7.331
6.270	81.48	95.0619	3.1608	7.429
6.303	81.83	95.0556	3.1606	7.523
6.337	82.18	95.0495	3.1604	7.615
6.370	82.53	95.0435	3.1602	7.710
6.403	82.87	95.0378	3.1600	7.802
6.437	83.22	95.0325	3.1598	7.894
6.470	83.57	95.0274	3.1597	7.981
6.503	83.91	95.0225	3.1595	8.065
6.537	84.26	95.0177	3.1593	8.154
6.570	84.61	95.0129	3.1592	8.241
6.603	84.95	95.0083	3.1590	8.325
6.637	85.30	95.0038	3.1589	8.402
6.670	85.65	94.9996	3.1587	8.481
6.703	85.99	94.9955	3.1586	8.558
6.737	86.34	94.9917	3.1585	8.633
6.770	86.68	94.9881	3.1584	8.708
6.803	87.03	94.9845	3.1582	8.783
6.837	87.38	94.9811	3.1581	8.860
6.870	87.72	94.9779	3.1580	8.930
6.903	88.07	94.9749	3.1579	8.993
6.937	88.41	94.9719	3.1578	9.062
6.970	88.76	94.9691	3.1577	9.134
7.003	89.10	94.9664	3.1576	9.200
7.037	89.45	94.9639	3.1576	9.264
7.070	89.79	94.9615	3.1575	9.324
7.103	90.14	94.9592	3.1574	9.385
7.137	90.49	94.9570	3.1573	9.441
7.170	90.83	94.9549	3.1573	9.497
7.203	91.18	94.9529	3.1572	9.551
7.237	91.52	94.9511	3.1571	9.612
7.270	91.86	94.9495	3.1571	9.671
7.303	92.21	94.9478	3.1570	9.722
7.337	92.55	94.9462	3.1570	9.772
7.370	92.90	94.9447	3.1569	9.824
7.403	93.24	94.9433	3.1569	9.874
7.437	93.59	94.9421	3.1568	9.919
7.470	93.93	94.9409	3.1568	9.961
7.503	94.28	94.9399	3.1568	10.002
7.537	94.62	94.9388	3.1567	10.043
7.570	94.96	94.9378	3.1567	10.083
7.603	95.31	94.9368	3.1567	10.121
7.637	95.65	94.9358	3.1566	10.161
7.670	96.00	94.9348	3.1566	10.205
7.703	96.34	94.9340	3.1566	10.242
7.737	96.68	94.9333	3.1565	10.277
7.770	97.03	94.9326	3.1565	10.309
7.803	97.37	94.9322	3.1565	10.345
7.837	97.71	94.9320	3.1565	10.376
7.870	98.06	94.9317	3.1565	10.403
7.903	98.40	94.9313	3.1565	10.430
7.937	98.74	94.9308	3.1565	10.455
7.970	99.09	94.9303	3.1564	10.482
8.003	99.43	94.9300	3.1564	10.510
8.037	99.77	94.9297	3.1564	10.535
8.070	100.11	94.9294	3.1564	10.561
8.103	100.46	94.9289	3.1564	10.588
8.137	100.80	94.9285	3.1564	10.611
8.170	101.14	94.9280	3.1564	10.633
8.203	101.49	94.9275	3.1563	10.653
8.237	101.83	94.9271	3.1563	10.675
8.270	102.17	94.9269	3.1563	10.693
8.303	102.51	94.9267	3.1563	10.708
8.337	102.85	94.9265	3.1563	10.723
8.370	103.20	94.9264	3.1563	10.738
8.403	103.54	94.9263	3.1563	10.751
8.437	103.88	94.9262	3.1563	10.764
8.470	104.22	94.9261	3.1563	10.780
8.503	104.56	94.9260	3.1563	10.791
8.537	104.91	94.9259	3.1563	10.800
8.570	105.25	94.9257	3.1563	10.809
8.603	105.59	94.9255	3.1563	10.819
8.637	105.94	94.9254	3.1563	10.828
8.670	106.28	94.9253	3.1563	10.835
8.703	106.62	94.9252	3.1563	10.842
8.712	106.71	94.9251	3.1563	10.843

[step]
Isothermal 30.0 min
Time	Temperature	Weight	Weight	Heat Flow
min	°C	%	mg	mW
8.720	106.79	94.9251	3.1563	10.845
8.828	107.90	94.9252	3.1563	10.866
8.937	108.97	94.9253	3.1563	10.935
9.045	109.98	94.9245	3.1562	11.077
9.153	110.88	94.9231	3.1562	11.261
9.262	111.68	94.9209	3.1561	11.496
9.370	112.34	94.9182	3.1560	11.756
9.478	112.88	94.9151	3.1559	12.012
9.587	113.28	94.9127	3.1559	12.292
9.695	113.55	94.9082	3.1557	12.538
9.803	113.70	94.9036	3.1556	12.748
9.912	113.75	94.8991	3.1554	12.893
10.020	113.72	94.8941	3.1552	12.993
10.128	113.61	94.8894	3.1551	13.041
10.237	113.47	94.8841	3.1549	13.050
10.345	113.30	94.8803	3.1548	13.009
10.453	113.12	94.8774	3.1547	12.893
10.562	112.94	94.8745	3.1546	12.758
10.670	112.76	94.8721	3.1545	12.614
10.778	112.60	94.8700	3.1544	12.473
10.887	112.45	94.8689	3.1544	12.325
10.995	112.32	94.8677	3.1544	12.177
11.103	112.21	94.8667	3.1543	12.039
11.212	112.13	94.8661	3.1543	11.916
11.320	112.07	94.8649	3.1543	11.800
11.428	112.04	94.8638	3.1542	11.696
11.537	112.02	94.8633	3.1542	11.605
11.645	112.03	94.8622	3.1542	11.541
11.753	112.06	94.8623	3.1542	11.478
11.862	112.10	94.8621	3.1542	11.443
11.970	112.15	94.8617	3.1542	11.407
12.078	112.22	94.8616	3.1542	11.379
12.187	112.29	94.8613	3.1541	11.354
12.295	112.37	94.8607	3.1541	11.336
12.403	112.45	94.8603	3.1541	11.328
12.512	112.53	94.8598	3.1541	11.328
12.620	112.61	94.8592	3.1541	11.336
12.728	112.69	94.8588	3.1541	11.346
12.837	112.76	94.8579	3.1540	11.363
12.945	112.82	94.8572	3.1540	11.386
13.053	112.89	94.8561	3.1540	11.408
13.162	112.94	94.8552	3.1539	11.423
13.270	112.99	94.8545	3.1539	11.443
13.378	113.03	94.8535	3.1539	11.458
13.487	113.06	94.8527	3.1539	11.472
13.595	113.09	94.8522	3.1538	11.482
13.703	113.12	94.8516	3.1538	11.494
13.812	113.14	94.8510	3.1538	11.501
13.920	113.15	94.8501	3.1538	11.506
14.028	113.16	94.8493	3.1537	11.508
14.137	113.17	94.8491	3.1537	11.506
14.245	113.17	94.8487	3.1537	11.505
14.353	113.17	94.8483	3.1537	11.502
14.462	113.17	94.8474	3.1537	11.500
14.570	113.17	94.8466	3.1537	11.497
14.678	113.18	94.8457	3.1536	11.489
14.787	113.17	94.8451	3.1536	11.477
14.895	113.17	94.8440	3.1536	11.466
15.003	113.18	94.8433	3.1535	11.454
15.112	113.18	94.8425	3.1535	11.442
15.220	113.18	94.8419	3.1535	11.432
15.328	113.18	94.8414	3.1535	11.420
15.437	113.18	94.8413	3.1535	11.409
15.545	113.19	94.8411	3.1535	11.401
15.653	113.19	94.8402	3.1534	11.389
15.762	113.20	94.8401	3.1534	11.378
15.870	113.21	94.8400	3.1534	11.366
15.978	113.21	94.8397	3.1534	11.358
16.087	113.22	94.8391	3.1534	11.348
16.195	113.23	94.8386	3.1534	11.343
16.303	113.23	94.8379	3.1534	11.339
16.412	113.24	94.8373	3.1533	11.334
16.520	113.25	94.8370	3.1533	11.329
16.628	113.26	94.8369	3.1533	11.325
16.737	113.26	94.8370	3.1533	11.320
16.845	113.27	94.8364	3.1533	11.314
16.953	113.28	94.8354	3.1533	11.308
17.062	113.28	94.8350	3.1533	11.303
17.170	113.29	94.8347	3.1533	11.300
17.278	113.29	94.8339	3.1532	11.297
17.387	113.30	94.8334	3.1532	11.292
17.495	113.30	94.8328	3.1532	11.288
17.603	113.30	94.8330	3.1532	11.287
17.712	113.31	94.8325	3.1532	11.284
17.820	113.31	94.8319	3.1532	11.279
17.928	113.31	94.8318	3.1532	11.275
18.037	113.31	94.8317	3.1532	11.268
18.145	113.31	94.8313	3.1531	11.260
18.253	113.31	94.8311	3.1531	11.255
18.362	113.32	94.8307	3.1531	11.249
18.470	113.31	94.8304	3.1531	11.242
18.578	113.32	94.8301	3.1531	11.236
18.687	113.32	94.8298	3.1531	11.230
18.795	113.32	94.8293	3.1531	11.225
18.903	113.32	94.8289	3.1531	11.219
19.012	113.32	94.8286	3.1531	11.213
19.120	113.32	94.8283	3.1531	11.209
19.228	113.32	94.8280	3.1530	11.202
19.337	113.32	94.8271	3.1530	11.197
19.445	113.32	94.8268	3.1530	11.192
19.553	113.32	94.8265	3.1530	11.188
19.662	113.32	94.8259	3.1530	11.181
19.770	113.32	94.8252	3.1529	11.170
19.878	113.32	94.8251	3.1529	11.164
19.987	113.32	94.8246	3.1529	11.159
20.095	113.32	94.8243	3.1529	11.154
20.203	113.32	94.8240	3.1529	11.147
20.312	113.32	94.8239	3.1529	11.140
20.420	113.32	94.8240	3.1529	11.131
20.528	113.32	94.8240	3.1529	11.125
20.637	113.32	94.8238	3.1529	11.123
20.745	113.32	94.8236	3.1529	11.118
20.853	113.32	94.8234	3.1529	11.113
20.962	113.32	94.8228	3.1529	11.107
21.070	113.32	94.8226	3.1529	11.100
21.178	113.32	94.8221	3.1528	11.093
21.287	113.32	94.8214	3.1528	11.089
21.395	113.32	94.8212	3.1528	11.085
21.503	113.32	94.8214	3.1528	11.081
21.612	113.32	94.8212	3.1528	11.076
21.720	113.32	94.8208	3.1528	11.070
21.828	113.32	94.8206	3.1528	11.066
21.937	113.32	94.8206	3.1528	11.059
22.045	113.32	94.8202	3.1528	11.051
22.153	113.32	94.8203	3.1528	11.043
22.262	113.32	94.8198	3.1528	11.039
22.370	113.32	94.8197	3.1528	11.035
22.478	113.32	94.8192	3.1527	11.030
22.587	113.31	94.8192	3.1527	11.023
22.695	113.31	94.8186	3.1527	11.018
22.803	113.31	94.8184	3.1527	11.010
22.912	113.31	94.8181	3.1527	11.003
23.020	113.31	94.8182	3.1527	10.997
23.128	113.31	94.8172	3.1527	10.990
23.237	113.31	94.8183	3.1527	10.982
23.345	113.31	94.8196	3.1528	10.976
23.453	113.31	94.8156	3.1526	10.974
23.562	113.31	94.8127	3.1525	10.971
23.670	113.31	94.8106	3.1525	10.966
23.778	113.31	94.8093	3.1524	10.959
23.887	113.31	94.8087	3.1524	10.954
23.995	113.31	94.8082	3.1524	10.947
24.103	113.31	94.8082	3.1524	10.944
24.212	113.30	94.8081	3.1524	10.936
24.320	113.31	94.8076	3.1524	10.931
24.428	113.31	94.8075	3.1524	10.926
24.537	113.30	94.8071	3.1523	10.922
24.645	113.30	94.8067	3.1523	10.918
24.753	113.30	94.8068	3.1523	10.910
24.862	113.30	94.8064	3.1523	10.904
24.970	113.30	94.8065	3.1523	10.897
25.078	113.30	94.8064	3.1523	10.891
25.187	113.30	94.8056	3.1523	10.884
25.295	113.30	94.8058	3.1523	10.878
25.403	113.30	94.8054	3.1523	10.871
25.512	113.30	94.8053	3.1523	10.866
25.620	113.30	94.8052	3.1523	10.863
25.728	113.30	94.8055	3.1523	10.857
25.837	113.30	94.8050	3.1523	10.853
25.945	113.29	94.8050	3.1523	10.845
26.053	113.29	94.8046	3.1523	10.835
26.162	113.29	94.8042	3.1522	10.830
26.270	113.29	94.8039	3.1522	10.825
26.378	113.29	94.8036	3.1522	10.822
26.487	113.29	94.8036	3.1522	10.817
26.595	113.29	94.8033	3.1522	10.814
26.703	113.29	94.8032	3.1522	10.809
26.812	113.29	94.8031	3.1522	10.803
26.920	113.29	94.8029	3.1522	10.798
27.028	113.29	94.8027	3.1522	10.792
27.137	113.29	94.8028	3.1522	10.784
27.245	113.29	94.8028	3.1522	10.777
27.353	113.29	94.8028	3.1522	10.772
27.462	113.29	94.8026	3.1522	10.764
27.570	113.29	94.8021	3.1522	10.760
27.678	113.29	94.8018	3.1522	10.756
27.787	113.28	94.8014	3.1522	10.751
27.895	113.28	94.8012	3.1521	10.744
28.003	113.28	94.8011	3.1521	10.737
28.112	113.28	94.8007	3.1521	10.730
28.220	113.28	94.8005	3.1521	10.726
28.328	113.28	94.8003	3.1521	10.723
28.437	113.28	94.8001	3.1521	10.719
28.545	113.28	94.8002	3.1521	10.716
28.653	113.28	94.8004	3.1521	10.712
28.762	113.28	94.8000	3.1521	10.707
28.870	113.28	94.8000	3.1521	10.701
28.978	113.28	94.8000	3.1521	10.697
29.087	113.28	94.8000	3.1521	10.690
29.195	113.28	94.7999	3.1521	10.685
29.303	113.28	94.7999	3.1521	10.677
29.412	113.28	94.7995	3.1521	10.666
29.520	113.28	94.7993	3.1521	10.662
29.628	113.27	94.7995	3.1521	10.658
29.737	113.27	94.7991	3.1521	10.653
29.845	113.27	94.7995	3.1521	10.649
29.953	113.27	94.7993	3.1521	10.645
30.062	113.27	94.7993	3.1521	10.643
30.170	113.27	94.7988	3.1521	10.639
30.278	113.27	94.7985	3.1521	10.630
30.387	113.27	94.7984	3.1521	10.624
30.495	113.27	94.7979	3.1520	10.621
30.603	113.27	94.7977	3.1520	10.616
30.712	113.27	94.7974	3.1520	10.613
30.820	113.27	94.7972	3.1520	10.606
30.928	113.27	94.7971	3.1520	10.600
31.037	113.27	94.7970	3.1520	10.593
31.145	113.27	94.7968	3.1520	10.592
31.253	113.27	94.7968	3.1520	10.587
31.362	113.27	94.7968	3.1520	10.586
31.470	113.27	94.7965	3.1520	10.582
31.578	113.26	94.7963	3.1520	10.576
31.687	113.26	94.7964	3.1520	10.570
31.795	113.26	94.7964	3.1520	10.567
31.903	113.26	94.7961	3.1520	10.562
32.012	113.26	94.7958	3.1520	10.555
32.120	113.26	94.7955	3.1520	10.549
32.228	113.26	94.7951	3.1519	10.545
[...]
231.937	947.08	0.8400	0.0279	68.769
231.978	947.33	0.8399	0.0279	69.622
232.020	947.55	0.8396	0.0279	70.512
232.062	947.74	0.8391	0.0279	71.427
232.103	947.91	0.8386	0.0279	72.356
232.145	948.05	0.8382	0.0279	73.297
232.187	948.16	0.8378	0.0279	74.242
232.228	948.26	0.8374	0.0278	75.167
232.270	948.34	0.8371	0.0278	76.070
232.312	948.40	0.8367	0.0278	76.957
232.353	948.46	0.8365	0.0278	77.825
232.395	948.50	0.8362	0.0278	78.659
232.437	948.54	0.8359	0.0278	79.464
232.478	948.57	0.8354	0.0278	80.233
232.520	948.59	0.8348	0.0278	80.971
232.562	948.62	0.8343	0.0277	81.689
232.603	948.64	0.8338	0.0277	82.378
232.645	948.66	0.8334	0.0277	83.027
232.687	948.68	0.8331	0.0277	83.648
232.728	948.70	0.8328	0.0277	84.252
232.770	948.72	0.8327	0.0277	84.830
232.812	948.74	0.8324	0.0277	85.392
232.853	948.76	0.8322	0.0277	85.941
232.895	948.78	0.8319	0.0277	86.471
232.937	948.80	0.8313	0.0276	86.982
232.978	948.82	0.8309	0.0276	87.474
233.020	948.84	0.8306	0.0276	87.947
233.062	948.87	0.8303	0.0276	88.409
233.103	948.89	0.8300	0.0276	88.862
233.145	948.91	0.8299	0.0276	89.308
233.187	948.94	0.8298	0.0276	89.741
233.228	948.96	0.8298	0.0276	90.155
233.270	948.99	0.8298	0.0276	90.569
233.312	949.01	0.8298	0.0276	90.978
233.353	949.04	0.8296	0.0276	91.374
233.395	949.06	0.8294	0.0276	91.760
233.437	949.08	0.8292	0.0276	92.138
233.478	949.11	0.8289	0.0276	92.508
233.520	949.13	0.8285	0.0275	92.876
233.562	949.15	0.8282	0.0275	93.233
233.603	949.17	0.8280	0.0275	93.578
233.645	949.19	0.8277	0.0275	93.919
233.687	949.21	0.8273	0.0275	94.254
233.728	949.23	0.8271	0.0275	94.577
233.770	949.25	0.8269	0.0275	94.893
233.812	949.27	0.8267	0.0275	95.200
233.853	949.29	0.8264	0.0275	95.488
233.895	949.30	0.8261	0.0275	95.778
233.937	949.32	0.8256	0.0275	96.082
233.978	949.34	0.8252	0.0274	96.380
234.020	949.35	0.8248	0.0274	96.658
234.062	949.37	0.8247	0.0274	96.924
234.103	949.38	0.8246	0.0274	97.187
234.145	949.40	0.8242	0.0274	97.442
234.187	949.41	0.8238	0.0274	97.695
234.228	949.43	0.8234	0.0274	97.935
234.270	949.44	0.8229	0.0274	98.169
234.312	949.45	0.8226	0.0274	98.406
234.353	949.46	0.8224	0.0273	98.624
234.395	949.48	0.8224	0.0273	98.846
234.437	949.49	0.8221	0.0273	99.062
234.478	949.50	0.8216	0.0273	99.277
234.520	949.51	0.8211	0.0273	99.484
234.562	949.52	0.8208	0.0273	99.670
234.603	949.53	0.8205	0.0273	99.865
234.645	949.54	0.8202	0.0273	100.053
234.687	949.55	0.8198	0.0273	100.232
234.728	949.56	0.8195	0.0272	100.407
234.770	949.57	0.8195	0.0272	100.574
234.812	949.58	0.8193	0.0272	100.747
234.853	949.59	0.8190	0.0272	100.917
234.895	949.60	0.8187	0.0272	101.075
234.937	949.61	0.8184	0.0272	101.230
234.978	949.62	0.8183	0.0272	101.384
235.020	949.63	0.8181	0.0272	101.531
235.062	949.64	0.8177	0.0272	101.686
235.103	949.64	0.8172	0.0272	101.832
235.145	949.65	0.8168	0.0272	101.966
235.187	949.66	0.8164	0.0271	102.106
235.228	949.67	0.8159	0.0271	102.235
235.270	949.67	0.8156	0.0271	102.358
235.312	949.68	0.8153	0.0271	102.483
235.353	949.69	0.8148	0.0271	102.606
235.395	949.70	0.8143	0.0271	102.734
235.437	949.70	0.8139	0.0271	102.845
235.478	949.71	0.8137	0.0271	102.949
235.520	949.71	0.8134	0.0270	103.063
235.562	949.72	0.8133	0.0270	103.166
235.603	949.73	0.8146	0.0271	103.274
235.645	949.73	0.8173	0.0272	103.381
235.687	949.74	0.8199	0.0273	103.475
235.728	949.74	0.8219	0.0273	103.573
235.770	949.75	0.8233	0.0274	103.672
235.812	949.75	0.8244	0.0274	103.756
235.853	949.76	0.8254	0.0274	103.850
235.895	949.76	0.8261	0.0275	103.954
235.937	949.77	0.8265	0.0275	104.041
235.978	949.77	0.8267	0.0275	104.118
236.020	949.78	0.8269	0.0275	104.201
236.062	949.78	0.8270	0.0275	104.281
236.103	949.79	0.8270	0.0275	104.341
236.145	949.79	0.8268	0.0275	104.408
236.187	949.80	0.8266	0.0275	104.492
236.228	949.80	0.8264	0.0275	104.578
236.270	949.80	0.8260	0.0275	104.652
236.312	949.81	0.8256	0.0274	104.725
236.353	949.81	0.8251	0.0274	104.799
236.395	949.82	0.8247	0.0274	104.855
236.437	949.82	0.8245	0.0274	104.900
236.478	949.82	0.8244	0.0274	104.968
236.520	949.83	0.8241	0.0274	105.036
236.562	949.83	0.8237	0.0274	105.084
236.603	949.83	0.8233	0.0274	105.143
236.645	949.84	0.8230	0.0274	105.211
236.687	949.84	0.8228	0.0274	105.265
236.728	949.84	0.8226	0.0274	105.316
236.770	949.85	0.8222	0.0273	105.376
236.812	949.85	0.8218	0.0273	105.428
236.853	949.85	0.8214	0.0273	105.472
236.895	949.86	0.8211	0.0273	105.519
236.937	949.86	0.8208	0.0273	105.563
236.978	949.86	0.8204	0.0273	105.607
237.020	949.86	0.8200	0.0273	105.652
237.062	949.87	0.8196	0.0273	105.697
237.103	949.87	0.8190	0.0272	105.744
237.145	949.87	0.8182	0.0272	105.793
237.187	949.88	0.8177	0.0272	105.842
237.228	949.88	0.8174	0.0272	105.886
237.270	949.88	0.8170	0.0272	105.933
237.312	949.88	0.8166	0.0272	105.978
237.353	949.89	0.8162	0.0271	106.022
237.395	949.89	0.8158	0.0271	106.073
237.437	949.89	0.8155	0.0271	106.115
237.478	949.89	0.8150	0.0271	106.152
237.520	949.89	0.8145	0.0271	106.185
237.562	949.90	0.8139	0.0271	106.215
237.603	949.90	0.8133	0.0270	106.260
237.645	949.90	0.8127	0.0270	106.304
237.687	949.90	0.8122	0.0270	106.331
237.728	949.91	0.8117	0.0270	106.359
237.770	949.91	0.8114	0.0270	106.386
237.812	949.91	0.8113	0.0270	106.415
237.853	949.91	0.8110	0.0270	106.445
237.895	949.91	0.8105	0.0270	106.471
237.937	949.91	0.8100	0.0269	106.500
237.978	949.92	0.8095	0.0269	106.527
238.020	949.92	0.8093	0.0269	106.548
238.062	949.92	0.8090	0.0269	106.573
238.103	949.92	0.8089	0.0269	106.598
238.145	949.92	0.8087	0.0269	106.626
238.187	949.93	0.8084	0.0269	106.657
238.228	949.93	0.8081	0.0269	106.688
238.270	949.93	0.8076	0.0269	106.726
238.312	949.93	0.8071	0.0268	106.766
238.353	949.93	0.8068	0.0268	106.806
238.395	949.93	0.8066	0.0268	106.844
238.437	949.93	0.8064	0.0268	106.873
238.478	949.94	0.8063	0.0268	106.897
238.520	949.94	0.8060	0.0268	106.916
238.562	949.94	0.8056	0.0268	106.933
238.603	949.94	0.8053	0.0268	106.952
238.645	949.94	0.8049	0.0268	106.971
238.687	949.94	0.8044	0.0267	106.984
238.728	949.94	0.8039	0.0267	106.998
238.770	949.95	0.8036	0.0267	107.015
238.812	949.95	0.8032	0.0267	107.032
238.853	949.95	0.8028	0.0267	107.050
238.895	949.95	0.8024	0.0267	107.068
238.937	949.95	0.8020	0.0267	107.087
238.978	949.95	0.8017	0.0267	107.107
239.020	949.95	0.8014	0.0266	107.130
239.062	949.95	0.8011	0.0266	107.156
239.103	949.95	0.8008	0.0266	107.177
239.145	949.96	0.8004	0.0266	107.195
239.187	949.96	0.8000	0.0266	107.210
239.228	949.96	0.7994	0.0266	107.224
239.270	949.96	0.7990	0.0266	107.243
239.312	949.96	0.7984	0.0265	107.266
239.353	949.96	0.7978	0.0265	107.293
239.395	949.96	0.7973	0.0265	107.313
239.437	949.96	0.7970	0.0265	107.330
239.478	949.96	0.7967	0.0265	107.346
239.520	949.96	0.7962	0.0265	107.362
239.562	949.96	0.7957	0.0265	107.378
239.603	949.97	0.7953	0.0264	107.393
239.645	949.97	0.7949	0.0264	107.411
239.687	949.97	0.7947	0.0264	107.431
239.728	949.97	0.7945	0.0264	107.445
239.770	949.97	0.7942	0.0264	107.455
239.812	949.97	0.7938	0.0264	107.467
239.853	949.97	0.7933	0.0264	107.483
239.895	949.97	0.7928	0.0264	107.499
239.937	949.97	0.7924	0.0263	107.511
239.978	949.97	0.7920	0.0263	107.523
240.020	949.97	0.7915	0.0263	107.535
240.062	949.97	0.7910	0.0263	107.546
240.103	949.97	0.7907	0.0263	107.554
240.145	949.98	0.7904	0.0263	107.565
240.187	949.98	0.7900	0.0263	107.579
240.228	949.98	0.7894	0.0262	107.595
240.270	949.98	0.7890	0.0262	107.615
240.312	949.98	0.7887	0.0262	107.630
240.353	949.98	0.7884	0.0262	107.638
240.395	949.98	0.7881	0.0262	107.649
240.437	949.98	0.7877	0.0262	107.661
240.478	949.98	0.7873	0.0262	107.671
240.520	949.98	0.7870	0.0262	107.684
240.562	949.98	0.7866	0.0262	107.700
240.603	949.98	0.7861	0.0261	107.722
240.645	949.98	0.7856	0.0261	107.749
240.687	949.98	0.7853	0.0261	107.769
240.728	949.98	0.7852	0.0261	107.785
240.770	949.98	0.7850	0.0261	107.798
240.812	949.98	0.7848	0.0261	107.806
240.853	949.98	0.7844	0.0261	107.815
240.895	949.99	0.7838	0.0261	107.823
240.937	949.99	0.7833	0.0260	107.832
240.978	949.99	0.7827	0.0260	107.839
241.020	949.99	0.7823	0.0260	107.846
241.062	949.99	0.7817	0.0260	107.855
241.103	949.99	0.7813	0.0260	107.866
241.145	949.99	0.7810	0.0260	107.879
241.187	949.99	0.7807	0.0260	107.891
241.228	949.99	0.7804	0.0259	107.899
241.270	949.99	0.7800	0.0259	107.907
241.312	949.99	0.7796	0.0259	107.916
241.353	949.99	0.7790	0.0259	107.922
241.395	949.99	0.7784	0.0259	107.929
241.437	949.99	0.7778	0.0259	107.935
241.478	949.99	0.7775	0.0259	107.939
241.520	949.99	0.7770	0.0258	107.945
241.562	949.99	0.7767	0.0258	107.952
241.603	949.99	0.7764	0.0258	107.959
241.645	949.99	0.7759	0.0258	107.970
241.687		0.7754	0.0258
241.720		0.7751	0.0258