File: PSO Kinetics/data/softwood-5Kmin_1.txt
Filename	softwood-5Kmin_1
Instrument name	0650-0369 (192.168.1.2)
Operator	ca527
rundate	1/10/2023
Sample name	softwood-5Kmin_1
proceduresegments	Select Gas: Gas 1 ; Ramp 10.00 °C/min to 110.00 °C; Isothermal 30.0 min; Ramp 5.00 °C/min to 900.00 °C; Isothermal 30.0 min; Select Gas: Gas 2 ; Ramp 10.00 °C/min to 950.00 °C; Isothermal 10.0 min; Data Off ; Equilibrate 30.00 °C
[step]
Ramp 10.00 °C/min to 110.00 °C
Time	Temperature	Weight	Weight	Heat Flow
min	°C	%	mg	mW
0.003		100.0320	3.1726
0.037		100.1214	3.1754
0.070	22.11	100.0360	3.1727	-28.283
0.103	22.27	99.8748	3.1676	-28.123
0.137	22.42	99.8082	3.1655	-27.980
0.170	22.57	99.7778	3.1645	-27.847
0.203	22.72	99.7494	3.1636	-27.722
0.237	22.87	99.7222	3.1627	-27.603
0.270	23.01	99.6956	3.1619	-27.489
0.303	23.15	99.6692	3.1611	-27.379
0.337	23.29	99.6423	3.1602	-27.272
0.370	23.43	99.6147	3.1593	-27.168
0.403	23.58	99.5864	3.1584	-27.072
0.437	23.72	99.5572	3.1575	-26.977
0.470	23.86	99.5268	3.1565	-26.883
0.503	24.00	99.4948	3.1555	-26.796
0.537	24.16	99.4612	3.1545	-26.718
0.570	24.31	99.4262	3.1534	-26.652
0.603	24.47	99.3902	3.1522	-26.589
0.637	24.64	99.3533	3.1510	-26.535
0.670	24.81	99.3160	3.1499	-26.481
0.703	24.99	99.2787	3.1487	-26.432
0.737	25.17	99.2417	3.1475	-26.391
0.770	25.36	99.2053	3.1463	-26.347
0.803	25.56	99.1699	3.1452	-26.295
0.837	25.76	99.1356	3.1441	-26.242
0.870	25.97	99.1025	3.1431	-26.195
0.903	26.19	99.0704	3.1421	-26.140
0.937	26.41	99.0397	3.1411	-26.074
0.970	26.64	99.0102	3.1402	-26.002
1.003	26.88	98.9818	3.1393	-25.925
1.037	27.12	98.9542	3.1384	-25.841
1.070	27.38	98.9276	3.1375	-25.740
1.103	27.64	98.9016	3.1367	-25.627
1.137	27.90	98.8762	3.1359	-25.506
1.170	28.17	98.8510	3.1351	-25.374
1.203	28.45	98.8260	3.1343	-25.236
1.237	28.74	98.8009	3.1335	-25.086
1.270	29.03	98.7757	3.1327	-24.928
1.303	29.33	98.7505	3.1319	-24.762
1.337	29.63	98.7251	3.1311	-24.586
1.370	29.94	98.6994	3.1303	-24.400
1.403	30.25	98.6733	3.1295	-24.208
1.437	30.57	98.6468	3.1286	-24.009
1.470	30.90	98.6200	3.1278	-23.800
1.503	31.23	98.5928	3.1269	-23.585
1.537	31.56	98.5653	3.1261	-23.366
1.570	31.90	98.5377	3.1252	-23.145
1.603	32.24	98.5097	3.1243	-22.917
1.637	32.58	98.4814	3.1234	-22.682
1.670	32.93	98.4529	3.1225	-22.443
1.703	33.28	98.4243	3.1216	-22.202
1.737	33.63	98.3953	3.1207	-21.956
1.770	33.99	98.3660	3.1197	-21.704
1.803	34.35	98.3364	3.1188	-21.450
1.837	34.71	98.3067	3.1178	-21.195
1.870	35.07	98.2767	3.1169	-20.939
1.903	35.44	98.2465	3.1159	-20.679
1.937	35.80	98.2160	3.1150	-20.414
1.970	36.17	98.1853	3.1140	-20.146
2.003	36.54	98.1543	3.1130	-19.878
2.037	36.91	98.1232	3.1120	-19.610
2.070	37.28	98.0921	3.1110	-19.342
2.103	37.65	98.0608	3.1100	-19.071
2.137	38.03	98.0293	3.1090	-18.797
2.170	38.40	97.9975	3.1080	-18.518
2.203	38.78	97.9655	3.1070	-18.243
2.237	39.15	97.9331	3.1060	-17.968
2.270	39.53	97.9005	3.1050	-17.693
2.303	39.90	97.8677	3.1039	-17.413
2.337	40.28	97.8346	3.1029	-17.136
2.370	40.65	97.8012	3.1018	-16.859
2.403	41.03	97.7676	3.1008	-16.580
2.437	41.40	97.7337	3.0997	-16.300
2.470	41.78	97.6997	3.0986	-16.023
2.503	42.15	97.6655	3.0975	-15.748
2.537	42.52	97.6312	3.0964	-15.475
2.570	42.89	97.5968	3.0953	-15.199
2.603	43.27	97.5622	3.0942	-14.925
2.637	43.64	97.5275	3.0931	-14.651
2.670	44.01	97.4926	3.0920	-14.377
2.703	44.37	97.4577	3.0909	-14.102
2.737	44.74	97.4226	3.0898	-13.830
2.770	45.11	97.3874	3.0887	-13.559
2.803	45.48	97.3523	3.0876	-13.294
2.837	45.85	97.3169	3.0865	-13.024
2.870	46.21	97.2813	3.0853	-12.760
2.903	46.57	97.2457	3.0842	-12.502
2.937	46.94	97.2103	3.0831	-12.244
2.970	47.30	97.1749	3.0820	-11.981
3.003	47.66	97.1392	3.0808	-11.725
3.037	48.02	97.1034	3.0797	-11.469
3.070	48.38	97.0676	3.0785	-11.215
3.103	48.74	97.0318	3.0774	-10.961
3.137	49.09	96.9960	3.0763	-10.709
3.170	49.45	96.9604	3.0751	-10.458
3.203	49.81	96.9249	3.0740	-10.210
3.237	50.16	96.8894	3.0729	-9.967
3.270	50.51	96.8538	3.0718	-9.724
3.303	50.87	96.8184	3.0706	-9.478
3.337	51.22	96.7833	3.0695	-9.237
3.370	51.57	96.7482	3.0684	-8.999
3.403	51.92	96.7132	3.0673	-8.763
3.437	52.27	96.6782	3.0662	-8.529
3.470	52.62	96.6435	3.0651	-8.300
3.503	52.97	96.6090	3.0640	-8.073
3.537	53.32	96.5746	3.0629	-7.850
3.570	53.67	96.5404	3.0618	-7.627
3.603	54.01	96.5065	3.0608	-7.405
3.637	54.36	96.4729	3.0597	-7.179
3.670	54.71	96.4394	3.0586	-6.955
3.703	55.05	96.4060	3.0576	-6.732
3.737	55.40	96.3727	3.0565	-6.517
3.770	55.74	96.3396	3.0555	-6.304
3.803	56.08	96.3069	3.0544	-6.095
3.837	56.43	96.2747	3.0534	-5.881
3.870	56.77	96.2428	3.0524	-5.672
3.903	57.11	96.2112	3.0514	-5.467
3.937	57.46	96.1799	3.0504	-5.261
3.970	57.80	96.1489	3.0494	-5.058
4.003	58.14	96.1182	3.0484	-4.853
4.037	58.48	96.0877	3.0475	-4.654
4.070	58.82	96.0577	3.0465	-4.459
4.103	59.17	96.0281	3.0456	-4.265
4.137	59.51	95.9988	3.0447	-4.071
4.170	59.85	95.9699	3.0437	-3.879
4.203	60.19	95.9413	3.0428	-3.685
4.237	60.53	95.9130	3.0419	-3.492
4.270	60.87	95.8851	3.0410	-3.304
4.303	61.21	95.8577	3.0402	-3.119
4.337	61.55	95.8307	3.0393	-2.935
4.370	61.89	95.8041	3.0385	-2.755
4.403	62.23	95.7778	3.0376	-2.575
4.437	62.57	95.7519	3.0368	-2.394
4.470	62.91	95.7264	3.0360	-2.219
4.503	63.25	95.7013	3.0352	-2.044
4.537	63.60	95.6767	3.0344	-1.870
4.570	63.94	95.6523	3.0337	-1.696
4.603	64.28	95.6285	3.0329	-1.525
4.637	64.62	95.6051	3.0322	-1.355
4.670	64.96	95.5820	3.0314	-1.184
4.703	65.30	95.5593	3.0307	-1.015
4.737	65.64	95.5370	3.0300	-0.852
4.770	65.99	95.5150	3.0293	-0.686
4.803	66.33	95.4933	3.0286	-0.519
4.837	66.67	95.4719	3.0279	-0.358
4.870	67.01	95.4510	3.0273	-0.202
4.903	67.35	95.4304	3.0266	-0.048
4.937	67.69	95.4101	3.0260	0.106
4.970	68.04	95.3902	3.0253	0.258
5.003	68.38	95.3708	3.0247	0.406
5.037	68.72	95.3517	3.0241	0.556
5.070	69.06	95.3330	3.0235	0.705
5.103	69.41	95.3147	3.0230	0.851
5.137	69.75	95.2969	3.0224	0.995
5.170	70.09	95.2793	3.0218	1.137
5.203	70.44	95.2620	3.0213	1.277
5.237	70.78	95.2451	3.0207	1.421
5.270	71.12	95.2285	3.0202	1.565
5.303	71.47	95.2122	3.0197	1.702
5.337	71.81	95.1965	3.0192	1.839
5.370	72.16	95.1835	3.0188	1.976
5.403	72.50	95.1724	3.0184	2.108
5.437	72.84	95.1602	3.0181	2.242
5.470	73.19	95.1440	3.0175	2.368
5.503	73.53	95.1281	3.0170	2.497
5.537	73.88	95.1129	3.0166	2.627
5.570	74.22	95.0982	3.0161	2.753
5.603	74.57	95.0839	3.0156	2.879
5.637	74.91	95.0701	3.0152	2.999
5.670	75.26	95.0570	3.0148	3.117
5.703	75.60	95.0444	3.0144	3.234
5.737	75.95	95.0322	3.0140	3.354
5.770	76.29	95.0203	3.0136	3.474
5.803	76.64	95.0086	3.0132	3.592
5.837	76.99	94.9973	3.0129	3.706
5.870	77.33	94.9863	3.0125	3.816
5.903	77.68	94.9757	3.0122	3.927
5.937	78.02	94.9654	3.0119	4.035
5.970	78.37	94.9554	3.0116	4.144
6.003	78.72	94.9457	3.0113	4.248
6.037	79.06	94.9363	3.0110	4.351
6.070	79.41	94.9273	3.0107	4.455
6.103	79.75	94.9188	3.0104	4.558
6.137	80.10	94.9105	3.0101	4.660
6.170	80.44	94.9024	3.0099	4.754
6.203	80.79	94.8945	3.0096	4.846
6.237	81.14	94.8867	3.0094	4.940
6.270	81.48	94.8792	3.0091	5.034
6.303	81.83	94.8719	3.0089	5.131
6.337	82.17	94.8649	3.0087	5.226
6.370	82.52	94.8582	3.0085	5.312
6.403	82.87	94.8516	3.0083	5.396
6.437	83.21	94.8454	3.0081	5.482
6.470	83.56	94.8395	3.0079	5.570
6.503	83.91	94.8337	3.0077	5.654
6.537	84.25	94.8280	3.0075	5.738
6.570	84.60	94.8226	3.0073	5.820
6.603	84.94	94.8174	3.0072	5.904
6.637	85.29	94.8124	3.0070	5.983
6.670	85.64	94.8074	3.0069	6.059
6.703	85.98	94.8027	3.0067	6.129
6.737	86.33	94.7980	3.0066	6.199
6.770	86.67	94.7934	3.0064	6.271
6.803	87.02	94.7892	3.0063	6.341
6.837	87.37	94.7852	3.0062	6.408
6.870	87.71	94.7815	3.0060	6.475
6.903	88.06	94.7778	3.0059	6.546
6.937	88.40	94.7742	3.0058	6.615
6.970	88.75	94.7707	3.0057	6.679
7.003	89.09	94.7675	3.0056	6.740
7.037	89.44	94.7644	3.0055	6.803
7.070	89.79	94.7613	3.0054	6.865
7.103	90.13	94.7582	3.0053	6.925
7.137	90.48	94.7552	3.0052	6.985
7.170	90.82	94.7524	3.0051	7.041
7.203	91.17	94.7498	3.0050	7.095
7.237	91.51	94.7475	3.0050	7.147
7.270	91.86	94.7453	3.0049	7.201
7.303	92.20	94.7431	3.0048	7.256
7.337	92.55	94.7409	3.0048	7.303
7.370	92.89	94.7389	3.0047	7.347
7.403	93.24	94.7369	3.0046	7.392
7.437	93.58	94.7350	3.0046	7.440
7.470	93.92	94.7331	3.0045	7.485
7.503	94.27	94.7312	3.0045	7.527
7.537	94.61	94.7294	3.0044	7.565
7.570	94.96	94.7276	3.0043	7.608
7.603	95.30	94.7259	3.0043	7.647
7.637	95.65	94.7243	3.0042	7.682
7.670	95.99	94.7229	3.0042	7.721
7.703	96.33	94.7216	3.0041	7.763
7.737	96.68	94.7203	3.0041	7.796
7.770	97.02	94.7190	3.0041	7.826
7.803	97.36	94.7176	3.0040	7.858
7.837	97.71	94.7163	3.0040	7.891
7.870	98.05	94.7151	3.0039	7.921
7.903	98.39	94.7139	3.0039	7.950
7.937	98.74	94.7127	3.0039	7.976
7.970	99.08	94.7115	3.0038	8.001
8.003	99.42	94.7104	3.0038	8.027
8.037	99.77	94.7095	3.0038	8.055
8.070	100.11	94.7085	3.0037	8.081
8.103	100.45	94.7074	3.0037	8.105
8.137	100.80	94.7064	3.0037	8.127
8.170	101.14	94.7056	3.0036	8.149
8.203	101.48	94.7049	3.0036	8.170
8.237	101.82	94.7042	3.0036	8.189
8.270	102.17	94.7036	3.0036	8.204
8.303	102.51	94.7030	3.0036	8.218
8.337	102.85	94.7024	3.0035	8.233
8.370	103.20	94.7018	3.0035	8.251
8.403	103.54	94.7012	3.0035	8.266
8.437	103.88	94.7006	3.0035	8.277
8.470	104.22	94.7000	3.0035	8.286
8.503	104.56	94.6994	3.0034	8.295
8.537	104.90	94.6987	3.0034	8.305
8.570	105.25	94.6981	3.0034	8.319
8.603	105.59	94.6974	3.0034	8.335
8.637	105.93	94.6969	3.0034	8.349
8.670	106.28	94.6962	3.0033	8.359
8.695	106.53	94.6958	3.0033	8.365

[step]
Isothermal 30.0 min
Time	Temperature	Weight	Weight	Heat Flow
min	°C	%	mg	mW
8.703	106.62	94.6956	3.0033	8.366
8.812	107.73	94.6941	3.0033	8.393
8.920	108.80	94.6919	3.0032	8.476
9.028	109.80	94.6893	3.0031	8.655
9.137	110.71	94.6863	3.0030	8.909
9.245	111.51	94.6823	3.0029	9.215
9.353	112.18	94.6780	3.0028	9.572
9.462	112.73	94.6741	3.0026	9.960
9.570	113.13	94.6701	3.0025	10.377
9.678	113.41	94.6645	3.0023	10.784
9.787	113.57	94.6589	3.0022	11.155
9.895	113.63	94.6534	3.0020	11.475
10.003	113.61	94.6478	3.0018	11.746
10.112	113.52	94.6421	3.0016	11.959
10.220	113.39	94.6370	3.0015	12.096
10.328	113.23	94.6322	3.0013	12.166
10.437	113.06	94.6283	3.0012	12.193
10.545	112.89	94.6252	3.0011	12.202
10.653	112.72	94.6228	3.0010	12.183
10.762	112.57	94.6206	3.0009	12.117
10.870	112.42	94.6192	3.0009	12.032
10.978	112.30	94.6172	3.0008	11.939
11.087	112.20	94.6157	3.0008	11.832
11.195	112.11	94.6142	3.0007	11.737
11.303	112.06	94.6137	3.0007	11.644
11.412	112.03	94.6135	3.0007	11.558
11.520	112.01	94.6128	3.0007	11.470
11.628	112.02	94.6118	3.0007	11.389
11.737	112.05	94.6112	3.0006	11.317
11.845	112.09	94.6104	3.0006	11.255
11.953	112.14	94.6097	3.0006	11.211
12.062	112.20	94.6091	3.0006	11.172
12.170	112.27	94.6084	3.0006	11.143
12.278	112.35	94.6079	3.0005	11.126
12.387	112.43	94.6067	3.0005	11.111
12.495	112.51	94.6060	3.0005	11.097
12.603	112.59	94.6052	3.0005	11.093
12.712	112.66	94.6043	3.0004	11.092
12.820	112.73	94.6035	3.0004	11.094
12.928	112.80	94.6025	3.0004	11.101
13.037	112.86	94.6017	3.0003	11.114
13.145	112.92	94.6004	3.0003	11.134
13.253	112.96	94.5989	3.0003	11.152
13.362	113.01	94.5975	3.0002	11.169
13.470	113.04	94.5968	3.0002	11.185
13.578	113.07	94.5960	3.0002	11.203
13.687	113.09	94.5950	3.0001	11.217
13.795	113.11	94.5944	3.0001	11.232
13.903	113.13	94.5930	3.0001	11.243
14.012	113.14	94.5922	3.0000	11.249
14.120	113.14	94.5912	3.0000	11.258
14.228	113.15	94.5904	3.0000	11.265
14.337	113.15	94.5895	3.0000	11.266
14.445	113.15	94.5886	2.9999	11.265
14.553	113.15	94.5877	2.9999	11.263
14.662	113.16	94.5869	2.9999	11.262
14.770	113.15	94.5862	2.9999	11.255
14.878	113.15	94.5853	2.9998	11.250
14.987	113.15	94.5846	2.9998	11.244
15.095	113.16	94.5841	2.9998	11.240
15.203	113.16	94.5829	2.9997	11.231
15.312	113.16	94.5820	2.9997	11.220
15.420	113.17	94.5814	2.9997	11.214
15.528	113.17	94.5806	2.9997	11.206
15.637	113.18	94.5802	2.9997	11.195
15.745	113.18	94.5794	2.9996	11.185
15.853	113.19	94.5788	2.9996	11.176
15.962	113.19	94.5781	2.9996	11.169
16.070	113.20	94.5776	2.9996	11.164
16.178	113.21	94.5768	2.9996	11.156
16.287	113.22	94.5761	2.9995	11.149
16.395	113.23	94.5762	2.9995	11.146
16.503	113.23	94.5753	2.9995	11.139
16.612	113.24	94.5742	2.9995	11.135
16.720	113.25	94.5733	2.9994	11.128
16.828	113.25	94.5726	2.9994	11.126
16.937	113.26	94.5721	2.9994	11.123
17.045	113.27	94.5716	2.9994	11.118
17.153	113.27	94.5709	2.9994	11.114
17.262	113.28	94.5708	2.9994	11.112
17.370	113.28	94.5704	2.9993	11.107
17.478	113.28	94.5699	2.9993	11.105
17.587	113.29	94.5693	2.9993	11.101
17.695	113.29	94.5687	2.9993	11.098
17.803	113.29	94.5684	2.9993	11.093
17.912	113.29	94.5674	2.9993	11.088
18.020	113.30	94.5668	2.9992	11.083
18.128	113.30	94.5665	2.9992	11.080
18.237	113.30	94.5662	2.9992	11.076
18.345	113.30	94.5658	2.9992	11.070
18.453	113.30	94.5654	2.9992	11.062
18.562	113.30	94.5648	2.9992	11.053
18.670	113.30	94.5640	2.9991	11.049
18.778	113.30	94.5636	2.9991	11.045
18.887	113.30	94.5632	2.9991	11.039
18.995	113.30	94.5624	2.9991	11.034
19.103	113.30	94.5618	2.9991	11.027
19.212	113.30	94.5614	2.9991	11.021
19.320	113.30	94.5609	2.9990	11.014
19.428	113.30	94.5600	2.9990	11.007
19.537	113.30	94.5594	2.9990	11.002
19.645	113.30	94.5587	2.9990	10.995
19.753	113.30	94.5584	2.9990	10.991
19.862	113.30	94.5581	2.9990	10.985
19.970	113.30	94.5579	2.9990	10.978
20.078	113.30	94.5571	2.9989	10.975
20.187	113.30	94.5565	2.9989	10.970
20.295	113.30	94.5564	2.9989	10.961
20.403	113.30	94.5559	2.9989	10.959
20.512	113.30	94.5554	2.9989	10.956
20.620	113.30	94.5551	2.9989	10.949
20.728	113.30	94.5549	2.9989	10.941
20.837	113.30	94.5542	2.9988	10.933
20.945	113.30	94.5534	2.9988	10.928
21.053	113.30	94.5530	2.9988	10.923
21.162	113.30	94.5525	2.9988	10.921
21.270	113.30	94.5522	2.9988	10.916
21.378	113.31	94.5523	2.9988	10.910
21.487	113.30	94.5517	2.9988	10.904
21.595	113.30	94.5513	2.9987	10.895
21.703	113.30	94.5510	2.9987	10.890
21.812	113.30	94.5504	2.9987	10.885
21.920	113.30	94.5500	2.9987	10.879
22.028	113.30	94.5495	2.9987	10.874
22.137	113.30	94.5489	2.9987	10.870
22.245	113.30	94.5486	2.9987	10.864
22.353	113.30	94.5481	2.9986	10.858
22.462	113.30	94.5473	2.9986	10.853
22.570	113.30	94.5473	2.9986	10.847
22.678	113.30	94.5468	2.9986	10.841
22.787	113.30	94.5468	2.9986	10.832
22.895	113.30	94.5461	2.9986	10.826
23.003	113.30	94.5459	2.9986	10.820
23.112	113.30	94.5456	2.9986	10.814
23.220	113.30	94.5449	2.9985	10.809
23.328	113.30	94.5444	2.9985	10.803
23.437	113.30	94.5446	2.9985	10.796
23.545	113.30	94.5442	2.9985	10.788
23.653	113.29	94.5437	2.9985	10.782
23.762	113.29	94.5430	2.9985	10.777
23.870	113.29	94.5430	2.9985	10.772
23.978	113.29	94.5428	2.9985	10.767
24.087	113.29	94.5421	2.9985	10.762
24.195	113.29	94.5417	2.9984	10.757
24.303	113.29	94.5412	2.9984	10.751
24.412	113.29	94.5406	2.9984	10.742
24.520	113.29	94.5400	2.9984	10.735
24.628	113.29	94.5401	2.9984	10.731
24.737	113.29	94.5398	2.9984	10.725
24.845	113.29	94.5396	2.9984	10.718
24.953	113.29	94.5389	2.9984	10.715
25.062	113.29	94.5386	2.9983	10.711
25.170	113.28	94.5381	2.9983	10.705
25.278	113.28	94.5378	2.9983	10.701
25.387	113.28	94.5377	2.9983	10.696
25.495	113.28	94.5370	2.9983	10.689
25.603	113.28	94.5369	2.9983	10.683
25.712	113.28	94.5374	2.9983	10.680
25.820	113.28	94.5372	2.9983	10.671
25.928	113.28	94.5365	2.9983	10.665
26.037	113.28	94.5361	2.9983	10.660
26.145	113.28	94.5359	2.9983	10.655
26.253	113.28	94.5358	2.9983	10.652
26.362	113.28	94.5354	2.9982	10.648
26.470	113.28	94.5349	2.9982	10.643
26.578	113.28	94.5346	2.9982	10.640
26.687	113.28	94.5343	2.9982	10.632
26.795	113.28	94.5341	2.9982	10.624
26.903	113.27	94.5331	2.9982	10.618
27.012	113.27	94.5328	2.9982	10.614
27.120	113.27	94.5327	2.9982	10.609
27.228	113.27	94.5322	2.9981	10.606
27.337	113.27	94.5322	2.9981	10.601
27.445	113.27	94.5320	2.9981	10.596
27.553	113.27	94.5317	2.9981	10.591
27.662	113.27	94.5315	2.9981	10.588
27.770	113.27	94.5311	2.9981	10.584
27.878	113.27	94.5307	2.9981	10.579
27.987	113.27	94.5302	2.9981	10.574
28.095	113.27	94.5296	2.9981	10.570
28.203	113.27	94.5292	2.9980	10.563
28.312	113.27	94.5291	2.9980	10.555
28.420	113.27	94.5286	2.9980	10.552
28.528	113.27	94.5287	2.9980	10.548
28.637	113.26	94.5285	2.9980	10.540
28.745	113.26	94.5283	2.9980	10.535
28.853	113.26	94.5279	2.9980	10.529
28.962	113.26	94.5275	2.9980	10.524
29.070	113.26	94.5272	2.9980	10.519
29.178	113.26	94.5272	2.9980	10.516
29.287	113.26	94.5270	2.9980	10.513
29.395	113.26	94.5268	2.9980	10.510
29.503	113.26	94.5266	2.9980	10.507
29.612	113.26	94.5263	2.9980	10.500
29.720	113.26	94.5257	2.9979	10.497
29.828	113.26	94.5253	2.9979	10.489
29.937	113.26	94.5246	2.9979	10.483
30.045	113.26	94.5242	2.9979	10.478
30.153	113.26	94.5239	2.9979	10.473
30.262	113.26	94.5239	2.9979	10.470
30.370	113.26	94.5237	2.9979	10.468
30.478	113.26	94.5235	2.9979	10.462
30.587	113.26	94.5230	2.9978	10.459
30.695	113.26	94.5229	2.9978	10.455
30.803	113.26	94.5224	2.9978	10.447
30.912	113.26	94.5219	2.9978	10.445
31.020	113.25	94.5215	2.9978	10.439
31.128	113.25	94.5215	2.9978	10.432
31.237	113.25	94.5215	2.9978	10.427
31.345	113.25	94.5212	2.9978	10.423
31.453	113.25	94.5208	2.9978	10.419
31.562	113.25	94.5205	2.9978	10.414
31.670	113.25	94.5201	2.9978	10.412
31.778	113.25	94.5201	2.9978	10.409
31.887	113.25	94.5203	2.9978	10.405
31.995	113.25	94.5198	2.9977	10.401
32.103	113.25	94.5192	2.9977	10.396
32.212	113.25	94.5190	2.9977	10.390
32.320	113.25	94.5186	2.9977	10.385
[...]
232.295	948.18	-5.5858	-0.1772	67.626
232.337	948.23	-5.5861	-0.1772	68.376
232.378	948.27	-5.5863	-0.1772	69.117
232.420	948.31	-5.5865	-0.1772	69.850
232.462	948.34	-5.5869	-0.1772	70.550
232.503	948.36	-5.5872	-0.1772	71.224
232.545	948.38	-5.5874	-0.1772	71.884
232.587	948.40	-5.5877	-0.1772	72.526
232.628	948.42	-5.5880	-0.1772	73.139
232.670	948.44	-5.5884	-0.1772	73.731
232.712	948.46	-5.5887	-0.1772	74.302
232.753	948.48	-5.5887	-0.1772	74.859
232.795	948.50	-5.5886	-0.1772	75.400
232.837	948.52	-5.5887	-0.1772	75.931
232.878	948.54	-5.5889	-0.1773	76.450
232.920	948.56	-5.5889	-0.1773	76.949
232.962	948.58	-5.5890	-0.1773	77.436
233.003	948.61	-5.5890	-0.1773	77.903
233.045	948.63	-5.5893	-0.1773	78.361
233.087	948.65	-5.5895	-0.1773	78.812
233.128	948.68	-5.5894	-0.1773	79.251
233.170	948.70	-5.5893	-0.1773	79.680
233.212	948.73	-5.5893	-0.1773	80.100
233.253	948.75	-5.5894	-0.1773	80.519
233.295	948.77	-5.5894	-0.1773	80.926
233.337	948.80	-5.5896	-0.1773	81.327
233.378	948.82	-5.5900	-0.1773	81.725
233.420	948.85	-5.5901	-0.1773	82.107
233.462	948.87	-5.5900	-0.1773	82.479
233.503	948.89	-5.5899	-0.1773	82.842
233.545	948.91	-5.5900	-0.1773	83.202
233.587	948.93	-5.5902	-0.1773	83.561
233.628	948.95	-5.5902	-0.1773	83.913
233.670	948.97	-5.5902	-0.1773	84.252
233.712	948.99	-5.5903	-0.1773	84.583
233.753	949.01	-5.5903	-0.1773	84.918
233.795	949.03	-5.5904	-0.1773	85.245
233.837	949.05	-5.5907	-0.1773	85.557
233.878	949.07	-5.5911	-0.1773	85.852
233.920	949.08	-5.5914	-0.1773	86.147
233.962	949.10	-5.5915	-0.1773	86.442
234.003	949.12	-5.5916	-0.1773	86.729
234.045	949.13	-5.5916	-0.1773	87.016
234.087	949.15	-5.5917	-0.1773	87.293
234.128	949.16	-5.5920	-0.1774	87.559
234.170	949.18	-5.5924	-0.1774	87.823
234.212	949.19	-5.5926	-0.1774	88.073
234.253	949.20	-5.5928	-0.1774	88.314
234.295	949.22	-5.5931	-0.1774	88.548
234.337	949.23	-5.5936	-0.1774	88.780
234.378	949.24	-5.5939	-0.1774	89.015
234.420	949.25	-5.5941	-0.1774	89.247
234.462	949.27	-5.5945	-0.1774	89.470
234.503	949.28	-5.5951	-0.1774	89.685
234.545	949.29	-5.5955	-0.1775	89.900
234.587	949.30	-5.5959	-0.1775	90.105
234.628	949.31	-5.5961	-0.1775	90.302
234.670	949.32	-5.5964	-0.1775	90.498
234.712	949.33	-5.5966	-0.1775	90.691
234.753	949.34	-5.5970	-0.1775	90.877
234.795	949.35	-5.5973	-0.1775	91.060
234.837	949.36	-5.5977	-0.1775	91.244
234.878	949.37	-5.5981	-0.1775	91.424
234.920	949.38	-5.5985	-0.1776	91.600
234.962	949.39	-5.5988	-0.1776	91.763
235.003	949.40	-5.5991	-0.1776	91.921
235.045	949.41	-5.5993	-0.1776	92.085
235.087	949.41	-5.5994	-0.1776	92.247
235.128	949.42	-5.5997	-0.1776	92.393
235.170	949.43	-5.6001	-0.1776	92.529
235.212	949.44	-5.6006	-0.1776	92.665
235.253	949.45	-5.6011	-0.1776	92.812
235.295	949.45	-5.6018	-0.1777	92.951
235.337	949.46	-5.6023	-0.1777	93.078
235.378	949.47	-5.6027	-0.1777	93.218
235.420	949.47	-5.6033	-0.1777	93.355
235.462	949.48	-5.6038	-0.1777	93.477
235.503	949.49	-5.6042	-0.1777	93.605
235.545	949.49	-5.6046	-0.1778	93.738
235.587	949.50	-5.6050	-0.1778	93.858
235.628	949.51	-5.6053	-0.1778	93.971
235.670	949.51	-5.6055	-0.1778	94.082
235.712	949.52	-5.6058	-0.1778	94.189
235.753	949.52	-5.6062	-0.1778	94.298
235.795	949.53	-5.6066	-0.1778	94.404
235.837	949.54	-5.6070	-0.1778	94.519
235.878	949.54	-5.6073	-0.1778	94.632
235.920	949.55	-5.6076	-0.1778	94.728
235.962	949.55	-5.6080	-0.1779	94.824
236.003	949.56	-5.6085	-0.1779	94.921
236.045	949.56	-5.6090	-0.1779	95.014
236.087	949.57	-5.6094	-0.1779	95.110
236.128	949.57	-5.6098	-0.1779	95.218
236.170	949.58	-5.6101	-0.1779	95.313
236.212	949.58	-5.6104	-0.1779	95.390
236.253	949.58	-5.6108	-0.1779	95.477
236.295	949.59	-5.6111	-0.1780	95.572
236.337	949.59	-5.6115	-0.1780	95.663
236.378	949.60	-5.6118	-0.1780	95.737
236.420	949.60	-5.6120	-0.1780	95.813
236.462	949.61	-5.6124	-0.1780	95.910
236.503	949.61	-5.6127	-0.1780	96.006
236.545	949.61	-5.6132	-0.1780	96.087
236.587	949.62	-5.6136	-0.1780	96.158
236.628	949.62	-5.6140	-0.1781	96.228
236.670	949.62	-5.6143	-0.1781	96.299
236.712	949.63	-5.6147	-0.1781	96.370
236.753	949.63	-5.6152	-0.1781	96.434
236.795	949.64	-5.6157	-0.1781	96.493
236.837	949.64	-5.6161	-0.1781	96.567
236.878	949.64	-5.6166	-0.1781	96.644
236.920	949.65	-5.6172	-0.1782	96.712
236.962	949.65	-5.6177	-0.1782	96.774
237.003	949.65	-5.6182	-0.1782	96.826
237.045	949.66	-5.6186	-0.1782	96.883
237.087	949.66	-5.6190	-0.1782	96.940
237.128	949.66	-5.6195	-0.1782	96.997
237.170	949.67	-5.6201	-0.1782	97.067
237.212	949.67	-5.6207	-0.1783	97.141
237.253	949.67	-5.6213	-0.1783	97.202
237.295	949.67	-5.6217	-0.1783	97.253
237.337	949.68	-5.6221	-0.1783	97.305
237.378	949.68	-5.6224	-0.1783	97.360
237.420	949.68	-5.6227	-0.1783	97.422
237.462	949.68	-5.6232	-0.1783	97.481
237.503	949.69	-5.6236	-0.1784	97.539
237.545	949.69	-5.6242	-0.1784	97.597
237.587	949.69	-5.6246	-0.1784	97.651
237.628	949.69	-5.6250	-0.1784	97.701
237.670	949.70	-5.6255	-0.1784	97.746
237.712	949.70	-5.6260	-0.1784	97.793
237.753	949.70	-5.6265	-0.1784	97.838
237.795	949.70	-5.6270	-0.1785	97.877
237.837	949.71	-5.6276	-0.1785	97.919
237.878	949.71	-5.6280	-0.1785	97.967
237.920	949.71	-5.6281	-0.1785	98.009
237.962	949.71	-5.6283	-0.1785	98.046
238.003	949.72	-5.6287	-0.1785	98.087
238.045	949.72	-5.6291	-0.1785	98.130
238.087	949.72	-5.6295	-0.1785	98.178
238.128	949.72	-5.6300	-0.1786	98.223
238.170	949.72	-5.6306	-0.1786	98.261
238.212	949.72	-5.6310	-0.1786	98.293
238.253	949.73	-5.6314	-0.1786	98.330
238.295	949.73	-5.6319	-0.1786	98.372
238.337	949.73	-5.6323	-0.1786	98.414
238.378	949.73	-5.6327	-0.1786	98.456
238.420	949.73	-5.6330	-0.1787	98.496
238.462	949.74	-5.6333	-0.1787	98.539
238.503	949.74	-5.6336	-0.1787	98.590
238.545	949.74	-5.6340	-0.1787	98.636
238.587	949.74	-5.6345	-0.1787	98.673
238.628	949.74	-5.6349	-0.1787	98.712
238.670	949.74	-5.6353	-0.1787	98.750
238.712	949.75	-5.6355	-0.1787	98.780
238.753	949.75	-5.6358	-0.1787	98.811
238.795	949.75	-5.6360	-0.1787	98.848
238.837	949.75	-5.6361	-0.1788	98.884
238.878	949.75	-5.6364	-0.1788	98.916
238.920	949.75	-5.6368	-0.1788	98.950
238.962	949.76	-5.6372	-0.1788	98.991
239.003	949.76	-5.6377	-0.1788	99.032
239.045	949.76	-5.6382	-0.1788	99.061
239.087	949.76	-5.6386	-0.1788	99.089
239.128	949.76	-5.6389	-0.1788	99.126
239.170	949.76	-5.6393	-0.1789	99.166
239.212	949.76	-5.6398	-0.1789	99.207
239.253	949.77	-5.6402	-0.1789	99.239
239.295	949.77	-5.6405	-0.1789	99.259
239.337	949.77	-5.6407	-0.1789	99.282
239.378	949.77	-5.6409	-0.1789	99.314
239.420	949.77	-5.6412	-0.1789	99.351
239.462	949.77	-5.6417	-0.1789	99.389
239.503	949.77	-5.6422	-0.1789	99.424
239.545	949.77	-5.6427	-0.1790	99.454
239.587	949.78	-5.6433	-0.1790	99.484
239.628	949.78	-5.6437	-0.1790	99.518
239.670	949.78	-5.6441	-0.1790	99.547
239.712	949.78	-5.6447	-0.1790	99.571
239.753	949.78	-5.6451	-0.1790	99.594
239.795	949.78	-5.6453	-0.1790	99.622
239.837	949.78	-5.6456	-0.1791	99.655
239.878	949.78	-5.6460	-0.1791	99.681
239.920	949.79	-5.6467	-0.1791	99.706
239.962	949.79	-5.6471	-0.1791	99.734
240.003	949.79	-5.6474	-0.1791	99.760
240.045	949.79	-5.6480	-0.1791	99.788
240.087	949.79	-5.6485	-0.1791	99.816
240.128	949.79	-5.6487	-0.1792	99.838
240.170	949.79	-5.6490	-0.1792	99.862
240.212	949.79	-5.6496	-0.1792	99.892
240.253	949.79	-5.6502	-0.1792	99.918
240.295	949.79	-5.6506	-0.1792	99.936
240.337	949.80	-5.6509	-0.1792	99.954
240.378	949.80	-5.6513	-0.1792	99.975
240.420	949.80	-5.6516	-0.1792	99.999
240.462	949.80	-5.6520	-0.1793	100.027
240.503	949.80	-5.6523	-0.1793	100.060
240.545	949.80	-5.6525	-0.1793	100.095
240.587	949.80	-5.6526	-0.1793	100.128
240.628	949.80	-5.6528	-0.1793	100.155
240.670	949.80	-5.6533	-0.1793	100.182
240.712	949.80	-5.6538	-0.1793	100.213
240.753	949.80	-5.6541	-0.1793	100.239
240.795	949.81	-5.6545	-0.1793	100.260
240.837	949.81	-5.6548	-0.1793	100.283
240.878	949.81	-5.6554	-0.1794	100.306
240.920	949.81	-5.6561	-0.1794	100.329
240.962	949.81	-5.6566	-0.1794	100.354
241.003	949.81	-5.6570	-0.1794	100.382
241.045	949.81	-5.6575	-0.1794	100.411
241.087	949.81	-5.6580	-0.1794	100.441
241.128	949.81	-5.6584	-0.1795	100.469
241.170	949.81	-5.6587	-0.1795	100.490
241.212	949.81	-5.6591	-0.1795	100.512
241.253	949.81	-5.6595	-0.1795	100.534
241.295	949.82	-5.6600	-0.1795	100.555
241.337	949.82	-5.6604	-0.1795	100.583
241.378	949.82	-5.6608	-0.1795	100.610
241.420	949.82	-5.6615	-0.1796	100.633
241.462	949.82	-5.6623	-0.1796	100.656
241.503	949.82	-5.6630	-0.1796	100.684
241.545	949.82	-5.6636	-0.1796	100.707
241.587	949.82	-5.6639	-0.1796	100.724
241.628	949.82	-5.6643	-0.1796	100.743
241.670		-5.6648	-0.1797
241.703		-5.6652	-0.1797