File: PSO Kinetics/data/softwood-50Kmin_3.txt
Filename	softwood-50Kmin_3
Instrument name	0650-0369 (192.168.1.2)
Operator	ca527
rundate	1/8/2023
Sample name	softwood-50Kmin_3
proceduresegments	Select Gas: Gas 1 ; Ramp 10.00 °C/min to 110.00 °C; Isothermal 30.0 min; Ramp 50.00 °C/min to 900.00 °C; Isothermal 30.0 min; Select Gas: Gas 2 ; Ramp 10.00 °C/min to 950.00 °C; Isothermal 10.0 min; Data Off ; Equilibrate 30.00 °C
[step]
Ramp 10.00 °C/min to 110.00 °C
Time	Temperature	Weight	Weight	Heat Flow
min	°C	%	mg	mW
0.003		100.0373	4.4117
0.037		100.2686	4.4219
0.070	22.81	100.3897	4.4273	-27.153
0.103	22.95	100.4253	4.4288	-27.062
0.137	23.08	100.4350	4.4293	-26.980
0.170	23.22	100.4414	4.4296	-26.898
0.203	23.35	100.4457	4.4297	-26.813
0.237	23.48	100.4481	4.4298	-26.732
0.270	23.60	100.4486	4.4299	-26.656
0.303	23.73	100.4472	4.4298	-26.584
0.337	23.86	100.4438	4.4297	-26.513
0.370	23.99	100.4386	4.4294	-26.442
0.403	24.12	100.4317	4.4291	-26.371
0.437	24.25	100.4231	4.4287	-26.303
0.470	24.38	100.4127	4.4283	-26.244
0.503	24.52	100.4006	4.4278	-26.192
0.537	24.67	100.3866	4.4271	-26.145
0.570	24.82	100.3711	4.4265	-26.102
0.603	24.97	100.3545	4.4257	-26.064
0.637	25.14	100.3371	4.4250	-26.035
0.670	25.30	100.3192	4.4242	-26.018
0.703	25.48	100.3011	4.4234	-26.000
0.737	25.66	100.2833	4.4226	-25.979
0.770	25.85	100.2660	4.4218	-25.960
0.803	26.04	100.2493	4.4211	-25.943
0.837	26.25	100.2334	4.4204	-25.920
0.870	26.46	100.2183	4.4197	-25.894
0.903	26.67	100.2041	4.4191	-25.860
0.937	26.90	100.1907	4.4185	-25.819
0.970	27.13	100.1780	4.4179	-25.768
1.003	27.37	100.1659	4.4174	-25.707
1.037	27.62	100.1545	4.4169	-25.633
1.070	27.87	100.1436	4.4164	-25.551
1.103	28.13	100.1330	4.4160	-25.464
1.137	28.40	100.1226	4.4155	-25.360
1.170	28.68	100.1121	4.4150	-25.243
1.203	28.97	100.1017	4.4146	-25.114
1.237	29.25	100.0912	4.4141	-24.975
1.270	29.55	100.0806	4.4136	-24.832
1.303	29.85	100.0698	4.4132	-24.681
1.337	30.16	100.0587	4.4127	-24.516
1.370	30.47	100.0472	4.4122	-24.346
1.403	30.79	100.0353	4.4116	-24.168
1.437	31.11	100.0232	4.4111	-23.986
1.470	31.44	100.0108	4.4106	-23.795
1.503	31.77	99.9980	4.4100	-23.594
1.537	32.11	99.9849	4.4094	-23.391
1.570	32.45	99.9715	4.4088	-23.181
1.603	32.80	99.9579	4.4082	-22.964
1.637	33.14	99.9439	4.4076	-22.745
1.670	33.50	99.9297	4.4070	-22.521
1.703	33.85	99.9152	4.4064	-22.292
1.737	34.20	99.9006	4.4057	-22.060
1.770	34.56	99.8856	4.4050	-21.822
1.803	34.93	99.8703	4.4044	-21.580
1.837	35.29	99.8546	4.4037	-21.336
1.870	35.66	99.8387	4.4030	-21.090
1.903	36.02	99.8227	4.4023	-20.839
1.937	36.39	99.8063	4.4015	-20.586
1.970	36.77	99.7897	4.4008	-20.329
2.003	37.14	99.7728	4.4001	-20.067
2.037	37.51	99.7557	4.3993	-19.805
2.070	37.88	99.7382	4.3985	-19.544
2.103	38.26	99.7204	4.3978	-19.281
2.137	38.63	99.7024	4.3970	-19.018
2.170	39.01	99.6840	4.3962	-18.754
2.203	39.38	99.6652	4.3953	-18.488
2.237	39.76	99.6461	4.3945	-18.221
2.270	40.14	99.6269	4.3936	-17.954
2.303	40.51	99.6075	4.3928	-17.687
2.337	40.89	99.5879	4.3919	-17.421
2.370	41.26	99.5679	4.3910	-17.154
2.403	41.64	99.5477	4.3901	-16.886
2.437	42.01	99.5272	4.3892	-16.618
2.470	42.38	99.5065	4.3883	-16.349
2.503	42.76	99.4854	4.3874	-16.080
2.537	43.13	99.4640	4.3864	-15.814
2.570	43.50	99.4423	4.3855	-15.550
2.603	43.87	99.4205	4.3845	-15.286
2.637	44.24	99.3983	4.3836	-15.023
2.670	44.62	99.3759	4.3826	-14.760
2.703	44.98	99.3532	4.3816	-14.503
2.737	45.35	99.3301	4.3805	-14.243
2.770	45.72	99.3068	4.3795	-13.983
2.803	46.08	99.2831	4.3785	-13.726
2.837	46.45	99.2592	4.3774	-13.472
2.870	46.81	99.2351	4.3764	-13.224
2.903	47.17	99.2107	4.3753	-12.975
2.937	47.54	99.1861	4.3742	-12.728
2.970	47.90	99.1612	4.3731	-12.478
3.003	48.26	99.1361	4.3720	-12.229
3.037	48.62	99.1109	4.3709	-11.987
3.070	48.98	99.0854	4.3698	-11.747
3.103	49.33	99.0597	4.3686	-11.509
3.137	49.69	99.0339	4.3675	-11.271
3.170	50.04	99.0079	4.3663	-11.036
3.203	50.39	98.9817	4.3652	-10.801
3.237	50.75	98.9554	4.3640	-10.571
3.270	51.10	98.9289	4.3629	-10.343
3.303	51.45	98.9023	4.3617	-10.119
3.337	51.80	98.8755	4.3605	-9.895
3.370	52.15	98.8487	4.3593	-9.673
3.403	52.50	98.8217	4.3581	-9.452
3.437	52.85	98.7948	4.3569	-9.234
3.470	53.20	98.7677	4.3557	-9.017
3.503	53.54	98.7406	4.3545	-8.804
3.537	53.89	98.7134	4.3533	-8.593
3.570	54.24	98.6862	4.3521	-8.381
3.603	54.58	98.6588	4.3509	-8.174
3.637	54.93	98.6313	4.3497	-7.965
3.670	55.27	98.6040	4.3485	-7.758
3.703	55.61	98.5767	4.3473	-7.556
3.737	55.96	98.5494	4.3461	-7.357
3.770	56.30	98.5220	4.3449	-7.159
3.803	56.64	98.4947	4.3437	-6.961
3.837	56.98	98.4675	4.3425	-6.763
3.870	57.33	98.4405	4.3413	-6.567
3.903	57.67	98.4136	4.3401	-6.373
3.937	58.01	98.3867	4.3389	-6.184
3.970	58.35	98.3598	4.3378	-5.993
4.003	58.69	98.3329	4.3366	-5.803
4.037	59.03	98.3061	4.3354	-5.615
4.070	59.37	98.2795	4.3342	-5.432
4.103	59.71	98.2530	4.3330	-5.253
4.137	60.05	98.2266	4.3319	-5.072
4.170	60.39	98.2004	4.3307	-4.892
4.203	60.73	98.1744	4.3296	-4.710
4.237	61.07	98.1486	4.3284	-4.529
4.270	61.41	98.1230	4.3273	-4.357
4.303	61.75	98.0976	4.3262	-4.186
4.337	62.09	98.0724	4.3251	-4.014
4.370	62.43	98.0476	4.3240	-3.839
4.403	62.77	98.0230	4.3229	-3.670
4.437	63.11	97.9986	4.3218	-3.501
4.470	63.45	97.9744	4.3208	-3.336
4.503	63.79	97.9505	4.3197	-3.173
4.537	64.13	97.9268	4.3187	-3.010
4.570	64.47	97.9033	4.3176	-2.847
4.603	64.81	97.8802	4.3166	-2.683
4.637	65.15	97.8573	4.3156	-2.520
4.670	65.49	97.8346	4.3146	-2.362
4.703	65.83	97.8122	4.3136	-2.204
4.737	66.17	97.7901	4.3126	-2.046
4.770	66.51	97.7684	4.3117	-1.890
4.803	66.86	97.7471	4.3107	-1.736
4.837	67.20	97.7263	4.3098	-1.585
4.870	67.54	97.7056	4.3089	-1.434
4.903	67.88	97.6852	4.3080	-1.285
4.937	68.22	97.6650	4.3071	-1.135
4.970	68.56	97.6451	4.3062	-0.986
5.003	68.91	97.6255	4.3054	-0.840
5.037	69.25	97.6060	4.3045	-0.693
5.070	69.59	97.5869	4.3037	-0.551
5.103	69.93	97.5681	4.3028	-0.408
5.137	70.28	97.5496	4.3020	-0.267
5.170	70.62	97.5314	4.3012	-0.127
5.203	70.96	97.5135	4.3004	0.015
5.237	71.31	97.4959	4.2997	0.159
5.270	71.65	97.4786	4.2989	0.297
5.303	71.99	97.4615	4.2981	0.431
5.337	72.34	97.4446	4.2974	0.564
5.370	72.68	97.4282	4.2967	0.695
5.403	73.02	97.4121	4.2960	0.821
5.437	73.37	97.3965	4.2953	0.947
5.470	73.71	97.3811	4.2946	1.078
5.503	74.06	97.3661	4.2939	1.211
5.537	74.40	97.3514	4.2933	1.342
5.570	74.75	97.3369	4.2926	1.470
5.603	75.09	97.3226	4.2920	1.590
5.637	75.44	97.3086	4.2914	1.711
5.670	75.78	97.2950	4.2908	1.835
5.703	76.13	97.2815	4.2902	1.954
5.737	76.47	97.2684	4.2896	2.074
5.770	76.82	97.2557	4.2891	2.191
5.803	77.17	97.2433	4.2885	2.305
5.837	77.51	97.2311	4.2880	2.415
5.870	77.86	97.2192	4.2875	2.527
5.903	78.20	97.2075	4.2869	2.636
5.937	78.55	97.1962	4.2864	2.750
5.970	78.90	97.1850	4.2859	2.859
6.003	79.24	97.1740	4.2855	2.967
6.037	79.59	97.1633	4.2850	3.075
6.070	79.94	97.1529	4.2845	3.186
6.103	80.28	97.1428	4.2841	3.291
6.137	80.63	97.1329	4.2836	3.395
6.170	80.98	97.1233	4.2832	3.494
6.203	81.32	97.1140	4.2828	3.594
6.237	81.67	97.1050	4.2824	3.691
6.270	82.02	97.0961	4.2820	3.790
6.303	82.36	97.0876	4.2816	3.889
6.337	82.71	97.0792	4.2813	3.984
6.370	83.06	97.0711	4.2809	4.077
6.403	83.40	97.0633	4.2806	4.173
6.437	83.75	97.0556	4.2802	4.263
6.470	84.10	97.0482	4.2799	4.351
6.503	84.44	97.0409	4.2796	4.441
6.537	84.79	97.0338	4.2793	4.534
6.570	85.14	97.0269	4.2790	4.625
6.603	85.48	97.0203	4.2787	4.711
6.637	85.83	97.0139	4.2784	4.791
6.670	86.18	97.0077	4.2781	4.870
6.703	86.52	97.0016	4.2779	4.949
6.737	86.87	96.9957	4.2776	5.030
6.770	87.22	96.9901	4.2773	5.109
6.803	87.56	96.9847	4.2771	5.188
6.837	87.91	96.9794	4.2769	5.263
6.870	88.26	96.9742	4.2766	5.338
6.903	88.60	96.9692	4.2764	5.414
6.937	88.95	96.9643	4.2762	5.486
6.970	89.29	96.9596	4.2760	5.559
7.003	89.64	96.9551	4.2758	5.630
7.037	89.99	96.9508	4.2756	5.699
7.070	90.33	96.9468	4.2754	5.762
7.103	90.68	96.9428	4.2753	5.828
7.137	91.02	96.9389	4.2751	5.891
7.170	91.37	96.9351	4.2749	5.955
7.203	91.72	96.9315	4.2748	6.017
7.237	92.06	96.9281	4.2746	6.078
7.270	92.41	96.9249	4.2745	6.137
7.303	92.75	96.9217	4.2743	6.191
7.337	93.10	96.9186	4.2742	6.247
7.370	93.44	96.9156	4.2741	6.304
7.403	93.79	96.9128	4.2739	6.362
7.437	94.13	96.9101	4.2738	6.415
7.470	94.48	96.9075	4.2737	6.463
7.503	94.82	96.9049	4.2736	6.512
7.537	95.17	96.9023	4.2735	6.565
7.570	95.51	96.9000	4.2734	6.613
7.603	95.86	96.8977	4.2733	6.659
7.637	96.20	96.8954	4.2732	6.702
7.670	96.54	96.8933	4.2731	6.747
7.703	96.89	96.8911	4.2730	6.790
7.737	97.23	96.8891	4.2729	6.830
7.770	97.58	96.8871	4.2728	6.867
7.803	97.92	96.8853	4.2727	6.908
7.837	98.26	96.8835	4.2726	6.951
7.870	98.61	96.8819	4.2726	6.993
7.903	98.95	96.8805	4.2725	7.027
7.937	99.30	96.8790	4.2725	7.058
7.970	99.64	96.8775	4.2724	7.085
8.003	99.98	96.8761	4.2723	7.116
8.037	100.33	96.8748	4.2723	7.149
8.070	100.67	96.8735	4.2722	7.181
8.103	101.01	96.8723	4.2722	7.216
8.137	101.36	96.8712	4.2721	7.249
8.170	101.70	96.8701	4.2721	7.278
8.203	102.04	96.8692	4.2720	7.303
8.237	102.39	96.8682	4.2720	7.330
8.270	102.73	96.8671	4.2719	7.354
8.303	103.08	96.8660	4.2719	7.378
8.337	103.42	96.8650	4.2718	7.399
8.370	103.76	96.8641	4.2718	7.420
8.403	104.10	96.8632	4.2718	7.436
8.437	104.45	96.8623	4.2717	7.449
8.470	104.79	96.8615	4.2717	7.465
8.503	105.13	96.8608	4.2716	7.486
8.537	105.48	96.8601	4.2716	7.508
8.570	105.82	96.8594	4.2716	7.530
8.603	106.16	96.8586	4.2715	7.547
8.637	106.51	96.8577	4.2715	7.560

[step]
Isothermal 30.0 min
Time	Temperature	Weight	Weight	Heat Flow
min	°C	%	mg	mW
8.645	106.59	96.8575	4.2715	7.562
8.753	107.70	96.8552	4.2714	7.609
8.862	108.78	96.8531	4.2713	7.727
8.970	109.78	96.8507	4.2712	7.924
9.078	110.68	96.8480	4.2711	8.206
9.187	111.48	96.8448	4.2709	8.559
9.295	112.15	96.8418	4.2708	8.959
9.403	112.70	96.8381	4.2706	9.388
9.512	113.10	96.8352	4.2705	9.855
9.620	113.38	96.8316	4.2704	10.330
9.728	113.55	96.8275	4.2702	10.760
9.837	113.61	96.8234	4.2700	11.139
9.945	113.60	96.8198	4.2698	11.462
10.053	113.51	96.8160	4.2697	11.742
10.162	113.38	96.8115	4.2695	11.928
10.270	113.22	96.8078	4.2693	12.041
10.378	113.06	96.8052	4.2692	12.091
10.487	112.88	96.8029	4.2691	12.110
10.595	112.72	96.8007	4.2690	12.112
10.703	112.56	96.7989	4.2689	12.074
10.812	112.42	96.7971	4.2688	12.008
10.920	112.29	96.7959	4.2688	11.917
11.028	112.19	96.7949	4.2687	11.820
11.137	112.11	96.7939	4.2687	11.733
11.245	112.05	96.7929	4.2687	11.631
11.353	112.02	96.7922	4.2686	11.531
11.462	112.00	96.7914	4.2686	11.437
11.570	112.01	96.7909	4.2686	11.355
11.678	112.04	96.7906	4.2686	11.286
11.787	112.08	96.7899	4.2685	11.228
11.895	112.13	96.7892	4.2685	11.180
12.003	112.19	96.7885	4.2685	11.137
12.112	112.27	96.7878	4.2684	11.103
12.220	112.34	96.7868	4.2684	11.073
12.328	112.42	96.7861	4.2684	11.052
12.437	112.50	96.7857	4.2683	11.041
12.545	112.58	96.7851	4.2683	11.033
12.653	112.65	96.7842	4.2683	11.033
12.762	112.73	96.7835	4.2682	11.040
12.870	112.79	96.7826	4.2682	11.048
12.978	112.85	96.7818	4.2682	11.062
13.087	112.91	96.7810	4.2681	11.077
13.195	112.96	96.7805	4.2681	11.097
13.303	113.00	96.7797	4.2681	11.115
13.412	113.03	96.7787	4.2680	11.133
13.520	113.06	96.7779	4.2680	11.150
13.628	113.09	96.7770	4.2680	11.165
13.737	113.11	96.7763	4.2679	11.182
13.845	113.12	96.7755	4.2679	11.196
13.953	113.13	96.7748	4.2679	11.207
14.062	113.14	96.7741	4.2678	11.215
14.170	113.15	96.7732	4.2678	11.222
14.278	113.15	96.7728	4.2678	11.227
14.387	113.15	96.7722	4.2677	11.231
14.495	113.15	96.7715	4.2677	11.229
14.603	113.15	96.7704	4.2677	11.225
14.712	113.15	96.7696	4.2676	11.220
14.820	113.15	96.7689	4.2676	11.213
14.928	113.15	96.7679	4.2676	11.207
15.037	113.15	96.7675	4.2675	11.198
15.145	113.16	96.7671	4.2675	11.192
15.253	113.16	96.7664	4.2675	11.183
15.362	113.16	96.7659	4.2675	11.169
15.470	113.17	96.7653	4.2674	11.160
15.578	113.17	96.7648	4.2674	11.156
15.687	113.18	96.7642	4.2674	11.146
15.795	113.18	96.7635	4.2674	11.135
15.903	113.19	96.7630	4.2673	11.126
16.012	113.20	96.7626	4.2673	11.116
16.120	113.21	96.7622	4.2673	11.105
16.228	113.21	96.7616	4.2673	11.097
16.337	113.22	96.7610	4.2672	11.091
16.445	113.23	96.7607	4.2672	11.087
16.553	113.24	96.7602	4.2672	11.081
16.662	113.24	96.7594	4.2672	11.079
16.770	113.25	96.7589	4.2672	11.077
16.878	113.26	96.7584	4.2671	11.071
16.987	113.26	96.7580	4.2671	11.063
17.095	113.27	96.7577	4.2671	11.056
17.203	113.27	96.7571	4.2671	11.049
17.312	113.27	96.7566	4.2671	11.044
17.420	113.28	96.7563	4.2670	11.037
17.528	113.28	96.7557	4.2670	11.031
17.637	113.28	96.7552	4.2670	11.027
17.745	113.29	96.7546	4.2670	11.021
17.853	113.29	96.7539	4.2669	11.017
17.962	113.29	96.7535	4.2669	11.009
18.070	113.29	96.7529	4.2669	11.001
18.178	113.29	96.7521	4.2669	10.993
18.287	113.29	96.7518	4.2668	10.988
18.395	113.29	96.7512	4.2668	10.983
18.503	113.29	96.7506	4.2668	10.979
18.612	113.29	96.7504	4.2668	10.974
18.720	113.29	96.7498	4.2668	10.965
18.828	113.29	96.7493	4.2667	10.960
18.937	113.29	96.7491	4.2667	10.954
19.045	113.29	96.7488	4.2667	10.947
19.153	113.29	96.7487	4.2667	10.941
19.262	113.29	96.7481	4.2667	10.933
19.370	113.29	96.7479	4.2667	10.925
19.478	113.29	96.7473	4.2666	10.917
19.587	113.29	96.7468	4.2666	10.908
19.695	113.29	96.7462	4.2666	10.901
19.803	113.30	96.7458	4.2666	10.898
19.912	113.29	96.7454	4.2666	10.894
20.020	113.29	96.7453	4.2666	10.885
20.128	113.30	96.7448	4.2665	10.881
20.237	113.30	96.7446	4.2665	10.875
20.345	113.30	96.7441	4.2665	10.871
20.453	113.30	96.7439	4.2665	10.861
20.562	113.30	96.7434	4.2665	10.856
20.670	113.30	96.7431	4.2665	10.846
20.778	113.30	96.7429	4.2664	10.840
20.887	113.30	96.7423	4.2664	10.832
20.995	113.30	96.7417	4.2664	10.827
21.103	113.30	96.7412	4.2664	10.822
21.212	113.30	96.7411	4.2664	10.814
21.320	113.30	96.7406	4.2663	10.805
21.428	113.30	96.7401	4.2663	10.797
21.537	113.29	96.7397	4.2663	10.793
21.645	113.29	96.7394	4.2663	10.785
21.753	113.29	96.7391	4.2663	10.777
21.862	113.29	96.7389	4.2663	10.770
21.970	113.29	96.7387	4.2663	10.762
22.078	113.29	96.7383	4.2662	10.755
22.187	113.29	96.7376	4.2662	10.747
22.295	113.29	96.7372	4.2662	10.743
22.403	113.29	96.7370	4.2662	10.735
22.512	113.29	96.7368	4.2662	10.728
22.620	113.29	96.7364	4.2662	10.722
22.728	113.29	96.7360	4.2661	10.717
22.837	113.29	96.7359	4.2661	10.712
22.945	113.29	96.7354	4.2661	10.705
23.053	113.29	96.7352	4.2661	10.700
23.162	113.29	96.7350	4.2661	10.696
23.270	113.29	96.7349	4.2661	10.691
23.378	113.29	96.7344	4.2661	10.684
23.487	113.28	96.7339	4.2660	10.679
23.595	113.29	96.7337	4.2660	10.672
23.703	113.28	96.7335	4.2660	10.667
23.812	113.28	96.7331	4.2660	10.660
23.920	113.28	96.7324	4.2660	10.651
24.028	113.28	96.7320	4.2660	10.647
24.137	113.28	96.7319	4.2660	10.643
24.245	113.28	96.7314	4.2659	10.637
24.353	113.28	96.7310	4.2659	10.631
24.462	113.28	96.7307	4.2659	10.624
24.570	113.28	96.7308	4.2659	10.618
24.678	113.28	96.7307	4.2659	10.610
24.787	113.28	96.7306	4.2659	10.602
24.895	113.28	96.7302	4.2659	10.592
25.003	113.27	96.7294	4.2659	10.588
25.112	113.27	96.7300	4.2659	10.583
25.220	113.27	96.7289	4.2658	10.577
25.328	113.27	96.7273	4.2658	10.572
25.437	113.27	96.7264	4.2657	10.566
25.545	113.27	96.7258	4.2657	10.561
25.653	113.27	96.7251	4.2657	10.553
25.762	113.27	96.7245	4.2656	10.547
25.870	113.27	96.7237	4.2656	10.540
25.978	113.27	96.7233	4.2656	10.534
26.087	113.27	96.7227	4.2656	10.528
26.195	113.27	96.7224	4.2655	10.523
26.303	113.27	96.7221	4.2655	10.519
26.412	113.27	96.7222	4.2655	10.513
26.520	113.27	96.7221	4.2655	10.509
26.628	113.27	96.7215	4.2655	10.503
26.737	113.26	96.7214	4.2655	10.495
26.845	113.26	96.7210	4.2655	10.489
26.953	113.26	96.7209	4.2655	10.483
27.062	113.26	96.7205	4.2655	10.479
27.170	113.26	96.7202	4.2654	10.475
27.278	113.26	96.7200	4.2654	10.471
27.387	113.26	96.7199	4.2654	10.465
27.495	113.26	96.7199	4.2654	10.459
27.603	113.26	96.7198	4.2654	10.456
27.712	113.26	96.7196	4.2654	10.450
27.820	113.26	96.7194	4.2654	10.447
27.928	113.26	96.7189	4.2654	10.440
28.037	113.26	96.7186	4.2654	10.437
28.145	113.26	96.7182	4.2654	10.429
28.253	113.26	96.7181	4.2654	10.424
28.362	113.26	96.7178	4.2653	10.418
28.470	113.25	96.7175	4.2653	10.413
28.578	113.25	96.7174	4.2653	10.406
28.687	113.25	96.7170	4.2653	10.399
28.795	113.25	96.7165	4.2653	10.394
28.903	113.25	96.7163	4.2653	10.391
29.012	113.25	96.7160	4.2653	10.387
29.120	113.25	96.7156	4.2652	10.381
29.228	113.25	96.7151	4.2652	10.371
29.337	113.25	96.7150	4.2652	10.367
29.445	113.25	96.7150	4.2652	10.364
29.553	113.25	96.7149	4.2652	10.359
29.662	113.25	96.7148	4.2652	10.353
29.770	113.25	96.7147	4.2652	10.347
29.878	113.25	96.7144	4.2652	10.342
29.987	113.25	96.7141	4.2652	10.339
30.095	113.25	96.7139	4.2652	10.338
30.203	113.24	96.7135	4.2651	10.333
30.312	113.24	96.7131	4.2651	10.327
30.420	113.24	96.7127	4.2651	10.321
30.528	113.24	96.7124	4.2651	10.314
30.637	113.24	96.7124	4.2651	10.310
30.745	113.24	96.7125	4.2651	10.303
30.853	113.24	96.7125	4.2651	10.300
30.962	113.24	96.7120	4.2651	10.295
31.070	113.24	96.7118	4.2651	10.287
31.178	113.24	96.7115	4.2651	10.282
31.287	113.24	96.7113	4.2651	10.279
31.395	113.24	96.7108	4.2650	10.275
31.503	113.24	96.7104	4.2650	10.271
31.612	113.24	96.7102	4.2650	10.267
31.720	113.24	96.7099	4.2650	10.264
31.828	113.24	96.7098	4.2650	10.261
31.937	113.24	96.7095	4.2650	10.254
32.045	113.23	96.7093	4.2650	10.251
32.153	113.23	96.7092	4.2650	10.246
32.262	113.23	96.7091	4.2650	10.239
32.370	113.23	96.7091	4.2650	10.234
[...]
min	°C	%	mg	mW
89.445	945.49	0.3111	0.0137	73.068
89.487	945.89	0.3106	0.0137	73.218
89.528	946.27	0.3102	0.0137	73.688
89.570	946.62	0.3099	0.0137	74.380
89.612	946.94	0.3096	0.0137	75.237
89.653	947.23	0.3093	0.0136	76.237
89.695	947.49	0.3088	0.0136	77.357
89.737	947.72	0.3083	0.0136	78.574
89.778	947.92	0.3078	0.0136	79.861
89.820	948.10	0.3074	0.0136	81.192
89.862	948.25	0.3069	0.0135	82.550
89.903	948.37	0.3064	0.0135	83.914
89.945	948.48	0.3060	0.0135	85.252
89.987	948.57	0.3056	0.0135	86.564
90.028	948.64	0.3052	0.0135	87.843
90.070	948.71	0.3050	0.0134	89.073
90.112	948.76	0.3047	0.0134	90.249
90.153	948.80	0.3044	0.0134	91.372
90.195	948.84	0.3040	0.0134	92.436
90.237	948.87	0.3036	0.0134	93.447
90.278	948.90	0.3032	0.0134	94.400
90.320	948.93	0.3030	0.0134	95.298
90.362	948.95	0.3027	0.0134	96.144
90.403	948.98	0.3024	0.0133	96.938
90.445	949.00	0.3021	0.0133	97.682
90.487	949.02	0.3019	0.0133	98.393
90.528	949.04	0.3016	0.0133	99.073
90.570	949.07	0.3013	0.0133	99.706
90.612	949.09	0.3011	0.0133	100.299
90.653	949.11	0.3010	0.0133	100.861
90.695	949.14	0.3008	0.0133	101.400
90.737	949.16	0.3005	0.0133	101.919
90.778	949.18	0.3001	0.0132	102.423
90.820	949.21	0.2998	0.0132	102.907
90.862	949.23	0.2995	0.0132	103.368
90.903	949.26	0.2993	0.0132	103.814
90.945	949.28	0.2991	0.0132	104.251
90.987	949.31	0.2989	0.0132	104.670
91.028	949.33	0.2986	0.0132	105.086
91.070	949.36	0.2984	0.0132	105.498
91.112	949.38	0.2981	0.0131	105.898
91.153	949.40	0.2980	0.0131	106.293
91.195	949.43	0.2979	0.0131	106.674
91.237	949.45	0.2977	0.0131	107.045
91.278	949.47	0.2975	0.0131	107.411
91.320	949.50	0.2972	0.0131	107.770
91.362	949.52	0.2970	0.0131	108.119
91.403	949.54	0.2968	0.0131	108.454
91.445	949.56	0.2966	0.0131	108.776
91.487	949.58	0.2963	0.0131	109.097
91.528	949.60	0.2961	0.0131	109.415
91.570	949.61	0.2958	0.0130	109.720
91.612	949.63	0.2954	0.0130	110.020
91.653	949.65	0.2951	0.0130	110.304
91.695	949.67	0.2948	0.0130	110.584
91.737	949.68	0.2946	0.0130	110.872
91.778	949.70	0.2945	0.0130	111.147
91.820	949.71	0.2942	0.0130	111.404
91.862	949.73	0.2938	0.0130	111.664
91.903	949.74	0.2932	0.0129	111.919
91.945	949.75	0.2928	0.0129	112.158
91.987	949.77	0.2926	0.0129	112.398
92.028	949.78	0.2923	0.0129	112.638
92.070	949.79	0.2919	0.0129	112.864
92.112	949.81	0.2916	0.0129	113.074
92.153	949.82	0.2912	0.0128	113.285
92.195	949.83	0.2909	0.0128	113.487
92.237	949.84	0.2906	0.0128	113.676
92.278	949.85	0.2903	0.0128	113.870
92.320	949.86	0.2900	0.0128	114.059
92.362	949.87	0.2896	0.0128	114.242
92.403	949.88	0.2892	0.0128	114.418
92.445	949.89	0.2888	0.0127	114.589
92.487	949.90	0.2885	0.0127	114.763
92.528	949.91	0.2884	0.0127	114.927
92.570	949.92	0.2882	0.0127	115.088
92.612	949.93	0.2879	0.0127	115.252
92.653	949.94	0.2875	0.0127	115.414
92.695	949.95	0.2872	0.0127	115.558
92.737	949.96	0.2870	0.0127	115.692
92.778	949.97	0.2867	0.0126	115.828
92.820	949.97	0.2863	0.0126	115.957
92.862	949.98	0.2858	0.0126	116.080
92.903	949.99	0.2854	0.0126	116.205
92.945	950.00	0.2850	0.0126	116.327
92.987	950.01	0.2848	0.0126	116.442
93.028	950.01	0.2846	0.0126	116.552
93.070	950.02	0.2843	0.0125	116.654
93.112	950.03	0.2840	0.0125	116.755
93.153	950.03	0.2838	0.0125	116.876
93.195	950.04	0.2833	0.0125	116.984
93.237	950.05	0.2829	0.0125	117.086
93.278	950.05	0.2825	0.0125	117.195
93.320	950.06	0.2821	0.0124	117.294
93.362	950.06	0.2817	0.0124	117.380
93.403	950.07	0.2814	0.0124	117.461
93.445	950.07	0.2811	0.0124	117.551
93.487	950.08	0.2808	0.0124	117.642
93.528	950.08	0.2805	0.0124	117.726
93.570	950.09	0.2801	0.0124	117.805
93.612	950.09	0.2798	0.0123	117.888
93.653	950.10	0.2793	0.0123	117.969
93.695	950.10	0.2788	0.0123	118.046
93.737	950.11	0.2784	0.0123	118.121
93.778	950.11	0.2781	0.0123	118.188
93.820	950.12	0.2777	0.0122	118.262
93.862	950.12	0.2773	0.0122	118.341
93.903	950.12	0.2770	0.0122	118.410
93.945	950.13	0.2767	0.0122	118.470
93.987	950.13	0.2763	0.0122	118.528
94.028	950.14	0.2759	0.0122	118.584
94.070	950.14	0.2756	0.0122	118.642
94.112	950.14	0.2754	0.0121	118.699
94.153	950.15	0.2750	0.0121	118.751
94.195	950.15	0.2746	0.0121	118.804
94.237	950.15	0.2741	0.0121	118.865
94.278	950.16	0.2737	0.0121	118.928
94.320	950.16	0.2733	0.0121	118.985
94.362	950.16	0.2729	0.0120	119.039
94.403	950.17	0.2727	0.0120	119.084
94.445	950.17	0.2723	0.0120	119.124
94.487	950.17	0.2719	0.0120	119.165
94.528	950.18	0.2716	0.0120	119.204
94.570	950.18	0.2712	0.0120	119.246
94.612	950.18	0.2709	0.0119	119.293
94.653	950.18	0.2705	0.0119	119.342
94.695	950.19	0.2702	0.0119	119.392
94.737	950.19	0.2700	0.0119	119.438
94.778	950.19	0.2697	0.0119	119.478
94.820	950.20	0.2695	0.0119	119.508
94.862	950.20	0.2691	0.0119	119.536
94.903	950.20	0.2688	0.0119	119.572
94.945	950.20	0.2683	0.0118	119.610
94.987	950.21	0.2678	0.0118	119.638
95.028	950.21	0.2673	0.0118	119.654
95.070	950.21	0.2668	0.0118	119.668
95.112	950.21	0.2664	0.0117	119.693
95.153	950.22	0.2660	0.0117	119.721
95.195	950.22	0.2656	0.0117	119.745
95.237	950.22	0.2652	0.0117	119.766
95.278	950.22	0.2649	0.0117	119.797
95.320	950.22	0.2645	0.0117	119.831
95.362	950.22	0.2640	0.0116	119.861
95.403	950.23	0.2635	0.0116	119.895
95.445	950.23	0.2630	0.0116	119.927
95.487	950.23	0.2627	0.0116	119.951
95.528	950.23	0.2624	0.0116	119.971
95.570	950.23	0.2621	0.0116	119.989
95.612	950.23	0.2619	0.0115	120.003
95.653	950.24	0.2615	0.0115	120.018
95.695	950.24	0.2610	0.0115	120.034
95.737	950.24	0.2606	0.0115	120.047
95.778	950.24	0.2603	0.0115	120.062
95.820	950.24	0.2601	0.0115	120.077
95.862	950.24	0.2598	0.0115	120.092
95.903	950.24	0.2594	0.0114	120.108
95.945	950.25	0.2590	0.0114	120.127
95.987	950.25	0.2586	0.0114	120.147
96.028	950.25	0.2583	0.0114	120.167
96.070	950.25	0.2580	0.0114	120.185
96.112	950.25	0.2576	0.0114	120.198
96.153	950.25	0.2573	0.0113	120.208
96.195	950.25	0.2571	0.0113	120.220
96.237	950.26	0.2567	0.0113	120.236
96.278	950.26	0.2564	0.0113	120.254
96.320	950.26	0.2561	0.0113	120.271
96.362	950.26	0.2556	0.0113	120.287
96.403	950.26	0.2551	0.0113	120.300
96.445	950.26	0.2546	0.0112	120.314
96.487	950.26	0.2542	0.0112	120.326
96.528	950.26	0.2538	0.0112	120.338
96.570	950.26	0.2533	0.0112	120.352
96.612	950.26	0.2528	0.0111	120.368
96.653	950.26	0.2525	0.0111	120.382
96.695	950.26	0.2521	0.0111	120.395
96.737	950.27	0.2518	0.0111	120.406
96.778	950.27	0.2514	0.0111	120.416
96.820	950.27	0.2510	0.0111	120.424
96.862	950.27	0.2508	0.0111	120.429
96.903	950.27	0.2505	0.0110	120.434
96.945	950.27	0.2501	0.0110	120.440
96.987	950.27	0.2496	0.0110	120.447
97.028	950.27	0.2492	0.0110	120.456
97.070	950.27	0.2488	0.0110	120.467
97.112	950.27	0.2483	0.0109	120.475
97.153	950.27	0.2478	0.0109	120.482
97.195	950.28	0.2473	0.0109	120.491
97.237	950.28	0.2470	0.0109	120.502
97.278	950.28	0.2468	0.0109	120.511
97.320	950.28	0.2466	0.0109	120.518
97.362	950.28	0.2462	0.0109	120.525
97.403	950.28	0.2458	0.0108	120.529
97.445	950.28	0.2454	0.0108	120.531
97.487	950.28	0.2450	0.0108	120.531
97.528	950.28	0.2447	0.0108	120.530
97.570	950.28	0.2443	0.0108	120.530
97.612	950.28	0.2440	0.0108	120.531
97.653	950.28	0.2436	0.0107	120.535
97.695	950.28	0.2432	0.0107	120.541
97.737	950.28	0.2428	0.0107	120.547
97.778	950.28	0.2424	0.0107	120.551
97.820	950.28	0.2418	0.0107	120.552
97.862	950.29	0.2414	0.0106	120.554
97.903	950.29	0.2409	0.0106	120.559
97.945	950.29	0.2405	0.0106	120.567
97.987	950.29	0.2401	0.0106	120.573
98.028	950.29	0.2396	0.0106	120.577
98.070	950.29	0.2391	0.0105	120.583
98.112	950.29	0.2386	0.0105	120.589
98.153	950.29	0.2382	0.0105	120.594
98.195	950.29	0.2379	0.0105	120.597
98.237	950.29	0.2376	0.0105	120.603
98.278	950.29	0.2372	0.0105	120.609
98.320	950.29	0.2369	0.0104	120.611
98.362	950.29	0.2365	0.0104	120.613
98.403	950.29	0.2360	0.0104	120.614
98.445	950.29	0.2356	0.0104	120.614
98.487	950.29	0.2352	0.0104	120.612
98.528	950.29	0.2348	0.0104	120.611
98.570	950.29	0.2343	0.0103	120.611
98.612	950.29	0.2338	0.0103	120.614
98.653	950.29	0.2334	0.0103	120.618
98.695	950.29	0.2331	0.0103	120.621
98.737	950.29	0.2329	0.0103	120.622
98.778	950.29	0.2325	0.0103	120.621
98.820	950.29	0.2321	0.0102	120.624
98.862	950.29	0.2316	0.0102	120.627
98.903	950.29	0.2310	0.0102	120.630
98.945	950.29	0.2305	0.0102	120.634
98.987	950.29	0.2301	0.0101	120.640
99.028	950.29	0.2297	0.0101	120.646
99.070	950.30	0.2294	0.0101	120.649
99.112	950.30	0.2290	0.0101	120.651
99.153	950.30	0.2285	0.0101	120.652
99.195	950.30	0.2280	0.0101	120.653
99.237	950.30	0.2275	0.0100	120.656
99.278	950.30	0.2272	0.0100	120.659
99.320	950.30	0.2269	0.0100	120.662
99.362	950.30	0.2266	0.0100	120.665
99.403		0.2262	0.0100
99.437		0.2261	0.0100