File: PSO Kinetics/data/softwood-10Kmin_2.txt
Filename	softwood-10Kmin_2
Instrument name	0650-0369 (192.168.1.2)
Operator	ca527
rundate	1/9/2023
Sample name	softwood-10Kmin_2
proceduresegments	Select Gas: Gas 1 ; Ramp 10.00 °C/min to 110.00 °C; Isothermal 30.0 min; Ramp 10.00 °C/min to 900.00 °C; Isothermal 30.0 min; Select Gas: Gas 2 ; Ramp 10.00 °C/min to 950.00 °C; Isothermal 10.0 min; Data Off ; Equilibrate 30.00 °C
[step]
Ramp 10.00 °C/min to 110.00 °C
Time	Temperature	Weight	Weight	Heat Flow
min	°C	%	mg	mW
0.003		100.0264	4.2976
0.037		100.1584	4.3033
0.070	22.52	100.1997	4.3051	-28.051
0.103	22.66	100.2099	4.3055	-27.913
0.137	22.80	100.2152	4.3057	-27.787
0.170	22.93	100.2177	4.3058	-27.670
0.203	23.07	100.2179	4.3058	-27.558
0.237	23.20	100.2163	4.3058	-27.449
0.270	23.33	100.2127	4.3056	-27.344
0.303	23.47	100.2070	4.3054	-27.239
0.337	23.60	100.1992	4.3050	-27.136
0.370	23.73	100.1894	4.3046	-27.040
0.403	23.86	100.1779	4.3041	-26.948
0.437	24.00	100.1647	4.3035	-26.860
0.470	24.14	100.1495	4.3029	-26.779
0.503	24.28	100.1323	4.3022	-26.706
0.537	24.43	100.1132	4.3013	-26.643
0.570	24.58	100.0922	4.3004	-26.582
0.603	24.74	100.0699	4.2995	-26.525
0.637	24.91	100.0472	4.2985	-26.475
0.670	25.08	100.0242	4.2975	-26.426
0.703	25.25	100.0012	4.2965	-26.380
0.737	25.44	99.9784	4.2955	-26.337
0.770	25.63	99.9562	4.2946	-26.293
0.803	25.83	99.9344	4.2937	-26.245
0.837	26.04	99.9135	4.2928	-26.193
0.870	26.25	99.8933	4.2919	-26.138
0.903	26.47	99.8740	4.2911	-26.073
0.937	26.70	99.8554	4.2903	-25.998
0.970	26.94	99.8375	4.2895	-25.912
1.003	27.18	99.8202	4.2887	-25.822
1.037	27.43	99.8033	4.2880	-25.724
1.070	27.69	99.7867	4.2873	-25.612
1.103	27.95	99.7701	4.2866	-25.492
1.137	28.22	99.7537	4.2859	-25.360
1.170	28.50	99.7371	4.2852	-25.217
1.203	28.79	99.7203	4.2845	-25.064
1.237	29.08	99.7033	4.2837	-24.899
1.270	29.38	99.6862	4.2830	-24.728
1.303	29.68	99.6688	4.2822	-24.548
1.337	29.99	99.6511	4.2815	-24.362
1.370	30.31	99.6331	4.2807	-24.172
1.403	30.63	99.6147	4.2799	-23.973
1.437	30.95	99.5961	4.2791	-23.766
1.470	31.28	99.5771	4.2783	-23.556
1.503	31.61	99.5577	4.2775	-23.341
1.537	31.95	99.5380	4.2766	-23.117
1.570	32.29	99.5180	4.2758	-22.886
1.603	32.64	99.4977	4.2749	-22.652
1.637	32.99	99.4772	4.2740	-22.414
1.670	33.34	99.4564	4.2731	-22.175
1.703	33.69	99.4354	4.2722	-21.929
1.737	34.05	99.4141	4.2713	-21.680
1.770	34.41	99.3925	4.2704	-21.426
1.803	34.77	99.3707	4.2694	-21.172
1.837	35.14	99.3487	4.2685	-20.917
1.870	35.50	99.3265	4.2675	-20.658
1.903	35.87	99.3040	4.2666	-20.394
1.937	36.24	99.2814	4.2656	-20.128
1.970	36.61	99.2585	4.2646	-19.863
2.003	36.99	99.2355	4.2636	-19.597
2.037	37.36	99.2123	4.2626	-19.331
2.070	37.73	99.1888	4.2616	-19.057
2.103	38.11	99.1651	4.2606	-18.785
2.137	38.48	99.1411	4.2596	-18.513
2.170	38.86	99.1168	4.2585	-18.242
2.203	39.23	99.0925	4.2575	-17.964
2.237	39.61	99.0680	4.2564	-17.687
2.270	39.98	99.0433	4.2554	-17.415
2.303	40.36	99.0184	4.2543	-17.138
2.337	40.74	98.9932	4.2532	-16.861
2.370	41.11	98.9678	4.2521	-16.587
2.403	41.49	98.9424	4.2510	-16.317
2.437	41.86	98.9169	4.2499	-16.041
2.470	42.24	98.8911	4.2488	-15.765
2.503	42.61	98.8652	4.2477	-15.490
2.537	42.98	98.8390	4.2466	-15.218
2.570	43.36	98.8128	4.2455	-14.954
2.603	43.73	98.7863	4.2443	-14.691
2.637	44.10	98.7596	4.2432	-14.422
2.670	44.47	98.7327	4.2420	-14.151
2.703	44.84	98.7055	4.2409	-13.882
2.737	45.21	98.6782	4.2397	-13.617
2.770	45.57	98.6506	4.2385	-13.358
2.803	45.94	98.6229	4.2373	-13.100
2.837	46.30	98.5950	4.2361	-12.839
2.870	46.67	98.5672	4.2349	-12.585
2.903	47.03	98.5393	4.2337	-12.337
2.937	47.39	98.5114	4.2325	-12.085
2.970	47.75	98.4832	4.2313	-11.836
3.003	48.11	98.4548	4.2301	-11.585
3.037	48.47	98.4265	4.2289	-11.339
3.070	48.83	98.3980	4.2276	-11.094
3.103	49.19	98.3693	4.2264	-10.854
3.137	49.54	98.3404	4.2252	-10.616
3.170	49.90	98.3115	4.2239	-10.377
3.203	50.25	98.2825	4.2227	-10.139
3.237	50.60	98.2534	4.2214	-9.904
3.270	50.96	98.2244	4.2202	-9.674
3.303	51.31	98.1951	4.2189	-9.445
3.337	51.66	98.1658	4.2177	-9.219
3.370	52.01	98.1364	4.2164	-8.995
3.403	52.36	98.1070	4.2151	-8.773
3.437	52.70	98.0776	4.2139	-8.555
3.470	53.05	98.0481	4.2126	-8.335
3.503	53.40	98.0186	4.2113	-8.118
3.537	53.75	97.9891	4.2101	-7.902
3.570	54.09	97.9596	4.2088	-7.694
3.603	54.44	97.9300	4.2075	-7.485
3.637	54.78	97.9006	4.2063	-7.280
3.670	55.12	97.8712	4.2050	-7.074
3.703	55.47	97.8418	4.2037	-6.869
3.737	55.81	97.8127	4.2025	-6.667
3.770	56.15	97.7837	4.2013	-6.466
3.803	56.49	97.7547	4.2000	-6.266
3.837	56.84	97.7258	4.1988	-6.069
3.870	57.18	97.6969	4.1975	-5.876
3.903	57.52	97.6680	4.1963	-5.686
3.937	57.86	97.6392	4.1950	-5.494
3.970	58.20	97.6105	4.1938	-5.304
4.003	58.54	97.5820	4.1926	-5.117
4.037	58.88	97.5538	4.1914	-4.932
4.070	59.22	97.5259	4.1902	-4.749
4.103	59.56	97.4981	4.1890	-4.566
4.137	59.90	97.4704	4.1878	-4.384
4.170	60.24	97.4428	4.1866	-4.204
4.203	60.58	97.4156	4.1854	-4.023
4.237	60.92	97.3884	4.1843	-3.844
4.270	61.26	97.3615	4.1831	-3.669
4.303	61.60	97.3347	4.1820	-3.497
4.337	61.94	97.3084	4.1808	-3.326
4.370	62.28	97.2824	4.1797	-3.158
4.403	62.62	97.2565	4.1786	-2.983
4.437	62.96	97.2308	4.1775	-2.810
4.470	63.30	97.2055	4.1764	-2.642
4.503	63.64	97.1804	4.1753	-2.478
4.537	63.98	97.1555	4.1743	-2.310
4.570	64.32	97.1309	4.1732	-2.144
4.603	64.66	97.1067	4.1722	-1.980
4.637	65.00	97.0827	4.1711	-1.819
4.670	65.34	97.0590	4.1701	-1.661
4.703	65.68	97.0355	4.1691	-1.507
4.737	66.02	97.0124	4.1681	-1.354
4.770	66.36	96.9894	4.1671	-1.196
4.803	66.70	96.9668	4.1662	-1.042
4.837	67.04	96.9446	4.1652	-0.892
4.870	67.39	96.9227	4.1643	-0.741
4.903	67.73	96.9011	4.1633	-0.588
4.937	68.07	96.8799	4.1624	-0.435
4.970	68.41	96.8590	4.1615	-0.287
5.003	68.75	96.8385	4.1606	-0.145
5.037	69.10	96.8184	4.1598	-0.001
5.070	69.44	96.7986	4.1589	0.140
5.103	69.78	96.7791	4.1581	0.280
5.137	70.12	96.7599	4.1573	0.420
5.170	70.47	96.7411	4.1565	0.559
5.203	70.81	96.7228	4.1557	0.700
5.237	71.15	96.7047	4.1549	0.837
5.270	71.50	96.6868	4.1541	0.976
5.303	71.84	96.6692	4.1534	1.109
5.337	72.18	96.6520	4.1526	1.242
5.370	72.53	96.6351	4.1519	1.375
5.403	72.87	96.6184	4.1512	1.506
5.437	73.22	96.6021	4.1505	1.635
5.470	73.56	96.5860	4.1498	1.762
5.503	73.91	96.5701	4.1491	1.889
5.537	74.25	96.5547	4.1484	2.013
5.570	74.60	96.5396	4.1478	2.138
5.603	74.94	96.5249	4.1472	2.261
5.637	75.29	96.5105	4.1465	2.386
5.670	75.63	96.4965	4.1459	2.510
5.703	75.98	96.4828	4.1454	2.627
5.737	76.33	96.4693	4.1448	2.743
5.770	76.67	96.4561	4.1442	2.861
5.803	77.02	96.4431	4.1437	2.978
5.837	77.36	96.4305	4.1431	3.090
5.870	77.71	96.4181	4.1426	3.201
5.903	78.06	96.4060	4.1421	3.306
5.937	78.40	96.3942	4.1416	3.414
5.970	78.75	96.3829	4.1411	3.524
6.003	79.09	96.3718	4.1406	3.634
6.037	79.44	96.3609	4.1401	3.740
6.070	79.79	96.3502	4.1397	3.840
6.103	80.13	96.3397	4.1392	3.946
6.137	80.48	96.3295	4.1388	4.049
6.170	80.83	96.3197	4.1384	4.148
6.203	81.17	96.3102	4.1379	4.245
6.237	81.52	96.3009	4.1375	4.342
6.270	81.87	96.2918	4.1372	4.437
6.303	82.21	96.2830	4.1368	4.530
6.337	82.56	96.2745	4.1364	4.624
6.370	82.91	96.2662	4.1361	4.716
6.403	83.25	96.2581	4.1357	4.807
6.437	83.60	96.2501	4.1354	4.894
6.470	83.95	96.2422	4.1350	4.978
6.503	84.29	96.2346	4.1347	5.067
6.537	84.64	96.2274	4.1344	5.156
6.570	84.99	96.2204	4.1341	5.242
6.603	85.33	96.2138	4.1338	5.323
6.637	85.68	96.2073	4.1335	5.406
6.670	86.03	96.2008	4.1332	5.485
6.703	86.37	96.1945	4.1330	5.563
6.737	86.72	96.1885	4.1327	5.640
6.770	87.06	96.1827	4.1325	5.717
6.803	87.41	96.1771	4.1322	5.796
6.837	87.76	96.1717	4.1320	5.865
6.870	88.10	96.1665	4.1318	5.936
6.903	88.45	96.1615	4.1316	6.006
6.937	88.79	96.1565	4.1313	6.077
6.970	89.14	96.1518	4.1311	6.143
7.003	89.49	96.1472	4.1309	6.209
7.037	89.83	96.1429	4.1308	6.276
7.070	90.18	96.1387	4.1306	6.338
7.103	90.52	96.1347	4.1304	6.397
7.137	90.87	96.1308	4.1302	6.456
7.170	91.21	96.1269	4.1301	6.517
7.203	91.56	96.1234	4.1299	6.577
7.237	91.90	96.1199	4.1298	6.634
7.270	92.25	96.1164	4.1296	6.693
7.303	92.59	96.1130	4.1295	6.751
7.337	92.94	96.1097	4.1293	6.803
7.370	93.28	96.1066	4.1292	6.852
7.403	93.63	96.1035	4.1291	6.903
7.437	93.97	96.1007	4.1289	6.955
7.470	94.32	96.0979	4.1288	7.002
7.503	94.66	96.0951	4.1287	7.042
7.537	95.01	96.0925	4.1286	7.086
7.570	95.35	96.0900	4.1285	7.134
7.603	95.69	96.0876	4.1284	7.178
7.637	96.04	96.0851	4.1283	7.217
7.670	96.38	96.0828	4.1282	7.253
7.703	96.73	96.0806	4.1281	7.293
7.737	97.07	96.0787	4.1280	7.329
7.770	97.41	96.0770	4.1279	7.363
7.803	97.76	96.0752	4.1278	7.398
7.837	98.10	96.0734	4.1278	7.433
7.870	98.44	96.0716	4.1277	7.463
7.903	98.79	96.0700	4.1276	7.492
7.937	99.13	96.0685	4.1276	7.522
7.970	99.48	96.0671	4.1275	7.553
8.003	99.82	96.0656	4.1274	7.581
8.037	100.16	96.0643	4.1274	7.608
8.070	100.51	96.0630	4.1273	7.634
8.103	100.85	96.0616	4.1273	7.659
8.137	101.19	96.0602	4.1272	7.680
8.170	101.53	96.0588	4.1271	7.705
8.203	101.88	96.0575	4.1271	7.728
8.237	102.22	96.0563	4.1270	7.746
8.270	102.56	96.0551	4.1270	7.762
8.303	102.91	96.0538	4.1269	7.780
8.337	103.25	96.0527	4.1269	7.798
8.370	103.59	96.0517	4.1268	7.816
8.403	103.93	96.0507	4.1268	7.837
8.437	104.28	96.0498	4.1268	7.855
8.470	104.62	96.0489	4.1267	7.871
8.503	104.96	96.0480	4.1267	7.883
8.537	105.30	96.0472	4.1266	7.895
8.570	105.65	96.0462	4.1266	7.906
8.603	105.99	96.0454	4.1266	7.917
8.637	106.33	96.0446	4.1265	7.926
8.653	106.50	96.0441	4.1265	7.930

[step]
Isothermal 30.0 min
Time	Temperature	Weight	Weight	Heat Flow
min	°C	%	mg	mW
8.662	106.59	96.0439	4.1265	7.931
8.770	107.70	96.0409	4.1264	7.964
8.878	108.77	96.0378	4.1262	8.054
8.987	109.77	96.0344	4.1261	8.217
9.095	110.68	96.0307	4.1259	8.458
9.203	111.47	96.0265	4.1258	8.758
9.312	112.15	96.0220	4.1256	9.105
9.420	112.69	96.0170	4.1253	9.477
9.528	113.09	96.0129	4.1252	9.876
9.637	113.37	96.0081	4.1250	10.271
9.745	113.53	96.0035	4.1248	10.629
9.853	113.60	95.9986	4.1246	10.933
9.962	113.58	95.9939	4.1244	11.195
10.070	113.48	95.9888	4.1241	11.409
10.178	113.35	95.9836	4.1239	11.540
10.287	113.18	95.9795	4.1237	11.608
10.395	113.01	95.9762	4.1236	11.628
10.503	112.84	95.9732	4.1235	11.628
10.612	112.67	95.9710	4.1234	11.594
10.720	112.51	95.9690	4.1233	11.527
10.828	112.37	95.9671	4.1232	11.428
10.937	112.24	95.9655	4.1231	11.337
11.045	112.14	95.9637	4.1231	11.230
11.153	112.06	95.9624	4.1230	11.134
11.262	112.00	95.9612	4.1230	11.042
11.370	111.97	95.9604	4.1229	10.948
11.478	111.96	95.9597	4.1229	10.866
11.587	111.97	95.9587	4.1228	10.784
11.695	111.99	95.9575	4.1228	10.717
11.803	112.03	95.9569	4.1228	10.667
11.912	112.09	95.9564	4.1227	10.617
12.020	112.15	95.9555	4.1227	10.584
12.128	112.22	95.9544	4.1227	10.552
12.237	112.30	95.9535	4.1226	10.526
12.345	112.38	95.9528	4.1226	10.510
12.453	112.46	95.9524	4.1226	10.501
12.562	112.54	95.9512	4.1225	10.494
12.670	112.62	95.9507	4.1225	10.495
12.778	112.69	95.9498	4.1225	10.502
12.887	112.75	95.9487	4.1224	10.510
12.995	112.81	95.9480	4.1224	10.524
13.103	112.87	95.9473	4.1224	10.541
13.212	112.92	95.9465	4.1223	10.558
13.320	112.96	95.9452	4.1223	10.574
13.428	112.99	95.9440	4.1222	10.595
13.537	113.02	95.9431	4.1222	10.613
13.645	113.05	95.9422	4.1221	10.624
13.753	113.06	95.9411	4.1221	10.636
13.862	113.08	95.9401	4.1220	10.646
13.970	113.09	95.9394	4.1220	10.657
14.078	113.10	95.9384	4.1220	10.665
14.187	113.10	95.9376	4.1219	10.669
14.295	113.10	95.9366	4.1219	10.670
14.403	113.10	95.9357	4.1219	10.669
14.512	113.11	95.9354	4.1218	10.670
14.620	113.11	95.9349	4.1218	10.667
14.728	113.11	95.9347	4.1218	10.661
14.837	113.11	95.9340	4.1218	10.654
14.945	113.10	95.9339	4.1218	10.644
15.053	113.11	95.9329	4.1217	10.632
15.162	113.11	95.9321	4.1217	10.623
15.270	113.11	95.9308	4.1216	10.615
15.378	113.11	95.9302	4.1216	10.603
15.487	113.12	95.9295	4.1216	10.594
15.595	113.12	95.9286	4.1215	10.585
15.703	113.13	95.9279	4.1215	10.575
15.812	113.14	95.9274	4.1215	10.567
15.920	113.14	95.9267	4.1215	10.562
16.028	113.15	95.9259	4.1214	10.552
16.137	113.16	95.9253	4.1214	10.545
16.245	113.17	95.9247	4.1214	10.539
16.353	113.18	95.9242	4.1214	10.531
16.462	113.18	95.9240	4.1213	10.525
16.570	113.19	95.9240	4.1213	10.518
16.678	113.19	95.9233	4.1213	10.510
16.787	113.20	95.9228	4.1213	10.504
16.895	113.21	95.9222	4.1213	10.502
17.003	113.21	95.9217	4.1212	10.499
17.112	113.22	95.9208	4.1212	10.491
17.220	113.22	95.9204	4.1212	10.484
17.328	113.23	95.9199	4.1212	10.477
17.437	113.23	95.9192	4.1211	10.471
17.545	113.23	95.9186	4.1211	10.464
17.653	113.24	95.9176	4.1211	10.457
17.762	113.24	95.9167	4.1210	10.453
17.870	113.24	95.9162	4.1210	10.448
17.978	113.24	95.9153	4.1210	10.445
18.087	113.24	95.9141	4.1209	10.442
18.195	113.24	95.9136	4.1209	10.436
18.303	113.25	95.9133	4.1209	10.430
18.412	113.25	95.9124	4.1209	10.426
18.520	113.25	95.9111	4.1208	10.422
18.628	113.25	95.9100	4.1207	10.415
18.737	113.25	95.9098	4.1207	10.408
18.845	113.25	95.9092	4.1207	10.402
18.953	113.25	95.9094	4.1207	10.397
19.062	113.25	95.9096	4.1207	10.387
19.170	113.25	95.9091	4.1207	10.379
19.278	113.25	95.9060	4.1206	10.374
19.387	113.25	95.9050	4.1205	10.371
19.495	113.25	95.9056	4.1206	10.363
19.603	113.25	95.9064	4.1206	10.354
19.712	113.25	95.9060	4.1206	10.347
19.820	113.25	95.9042	4.1205	10.344
19.928	113.25	95.9045	4.1205	10.336
20.037	113.25	95.9048	4.1205	10.329
20.145	113.25	95.9039	4.1205	10.322
20.253	113.25	95.9038	4.1205	10.317
20.362	113.25	95.9041	4.1205	10.309
20.470	113.25	95.9040	4.1205	10.303
20.578	113.25	95.9028	4.1204	10.299
20.687	113.25	95.9032	4.1205	10.295
20.795	113.25	95.9025	4.1204	10.290
20.903	113.25	95.9026	4.1204	10.282
21.012	113.25	95.9021	4.1204	10.276
21.120	113.25	95.9018	4.1204	10.270
21.228	113.25	95.9016	4.1204	10.262
21.337	113.25	95.9015	4.1204	10.256
21.445	113.25	95.9013	4.1204	10.250
21.553	113.25	95.9009	4.1204	10.244
21.662	113.25	95.9009	4.1204	10.237
21.770	113.25	95.9004	4.1203	10.230
21.878	113.25	95.8997	4.1203	10.221
21.987	113.25	95.8989	4.1203	10.215
22.095	113.25	95.8985	4.1203	10.210
22.203	113.24	95.8981	4.1202	10.204
22.312	113.24	95.8976	4.1202	10.203
22.420	113.24	95.8955	4.1201	10.202
22.528	113.24	95.8937	4.1200	10.196
22.637	113.24	95.8938	4.1201	10.189
22.745	113.24	95.8944	4.1201	10.180
22.853	113.24	95.8947	4.1201	10.173
22.962	113.24	95.8948	4.1201	10.167
23.070	113.24	95.8937	4.1200	10.163
23.178	113.24	95.8931	4.1200	10.158
23.287	113.24	95.8930	4.1200	10.150
23.395	113.24	95.8931	4.1200	10.144
23.503	113.24	95.8927	4.1200	10.136
23.612	113.24	95.8911	4.1199	10.132
23.720	113.24	95.8904	4.1199	10.128
23.828	113.24	95.8894	4.1199	10.120
23.937	113.23	95.8887	4.1198	10.111
24.045	113.24	95.8892	4.1199	10.106
24.153	113.24	95.8891	4.1199	10.100
24.262	113.24	95.8891	4.1199	10.095
24.370	113.24	95.8891	4.1199	10.089
24.478	113.23	95.8888	4.1198	10.085
24.587	113.23	95.8885	4.1198	10.078
24.695	113.23	95.8876	4.1198	10.073
24.803	113.23	95.8875	4.1198	10.069
24.912	113.23	95.8867	4.1197	10.065
25.020	113.23	95.8861	4.1197	10.054
25.128	113.23	95.8851	4.1197	10.048
25.237	113.23	95.8847	4.1197	10.044
25.345	113.23	95.8814	4.1195	10.039
25.453	113.23	95.8800	4.1195	10.032
25.562	113.23	95.8806	4.1195	10.024
25.670	113.22	95.8813	4.1195	10.017
25.778	113.22	95.8811	4.1195	10.013
25.887	113.22	95.8806	4.1195	10.010
25.995	113.22	95.8821	4.1195	10.007
26.103	113.22	95.8799	4.1195	10.004
26.212	113.22	95.8794	4.1194	9.999
26.320	113.22	95.8802	4.1195	9.993
26.428	113.22	95.8801	4.1195	9.985
26.537	113.22	95.8788	4.1194	9.979
26.645	113.22	95.8801	4.1195	9.974
26.753	113.22	95.8784	4.1194	9.969
26.862	113.22	95.8775	4.1194	9.963
26.970	113.22	95.8750	4.1192	9.960
27.078	113.22	95.8746	4.1192	9.951
27.187	113.22	95.8752	4.1193	9.946
27.295	113.22	95.8760	4.1193	9.942
27.403	113.22	95.8736	4.1192	9.936
27.512	113.22	95.8744	4.1192	9.932
27.620	113.21	95.8751	4.1192	9.927
27.728	113.21	95.8735	4.1192	9.921
27.837	113.21	95.8742	4.1192	9.914
27.945	113.21	95.8736	4.1192	9.910
28.053	113.21	95.8711	4.1191	9.906
28.162	113.21	95.8696	4.1190	9.900
28.270	113.21	95.8707	4.1191	9.896
28.378	113.21	95.8712	4.1191	9.891
28.487	113.21	95.8704	4.1190	9.885
28.595	113.21	95.8702	4.1190	9.881
28.703	113.21	95.8698	4.1190	9.878
28.812	113.21	95.8682	4.1190	9.872
28.920	113.21	95.8689	4.1190	9.871
29.028	113.21	95.8690	4.1190	9.863
29.137	113.21	95.8683	4.1190	9.856
29.245	113.21	95.8683	4.1190	9.848
29.353	113.21	95.8694	4.1190	9.842
29.462	113.21	95.8696	4.1190	9.839
29.570	113.20	95.8694	4.1190	9.833
29.678	113.20	95.8689	4.1190	9.829
29.787	113.20	95.8702	4.1190	9.823
29.895	113.20	95.8710	4.1191	9.822
30.003	113.20	95.8721	4.1191	9.817
30.112	113.20	95.8703	4.1190	9.810
30.220	113.20	95.8695	4.1190	9.803
30.328	113.20	95.8682	4.1190	9.798
30.437	113.20	95.8665	4.1189	9.795
30.545	113.20	95.8646	4.1188	9.791
30.653	113.20	95.8646	4.1188	9.787
30.762	113.20	95.8653	4.1188	9.780
30.870	113.20	95.8648	4.1188	9.776
30.978	113.20	95.8633	4.1187	9.770
31.087	113.20	95.8645	4.1188	9.767
31.195	113.20	95.8644	4.1188	9.763
31.303	113.20	95.8630	4.1187	9.759
31.412	113.20	95.8643	4.1188	9.755
31.520	113.19	95.8632	4.1187	9.752
31.628	113.19	95.8631	4.1187	9.751
31.737	113.19	95.8626	4.1187	9.748
31.845	113.19	95.8606	4.1186	9.741
31.953	113.19	95.8595	4.1186	9.737
32.062	113.19	95.8600	4.1186	9.735
32.170	113.19	95.8601	4.1186	9.728
32.278	113.19	95.8603	4.1186	9.723
32.387	113.19	95.8598	4.1186	9.719
32.495	113.19	95.8585	4.1185	9.714
[...]
153.370	948.48	-0.6836	-0.0294	78.216
153.412	948.52	-0.6839	-0.0294	79.117
153.453	948.54	-0.6842	-0.0294	79.974
153.495	948.57	-0.6845	-0.0294	80.791
153.537	948.59	-0.6848	-0.0294	81.573
153.578	948.62	-0.6850	-0.0294	82.316
153.620	948.64	-0.6852	-0.0294	83.022
153.662	948.66	-0.6853	-0.0294	83.695
153.703	948.68	-0.6853	-0.0294	84.329
153.745	948.70	-0.6854	-0.0294	84.933
153.787	948.72	-0.6856	-0.0295	85.514
153.828	948.74	-0.6858	-0.0295	86.067
153.870	948.76	-0.6858	-0.0295	86.599
153.912	948.79	-0.6858	-0.0295	87.124
153.953	948.81	-0.6859	-0.0295	87.644
153.995	948.83	-0.6860	-0.0295	88.131
154.037	948.86	-0.6862	-0.0295	88.581
154.078	948.88	-0.6863	-0.0295	89.020
154.120	948.91	-0.6866	-0.0295	89.459
154.162	948.93	-0.6867	-0.0295	89.881
154.203	948.96	-0.6868	-0.0295	90.292
154.245	948.98	-0.6870	-0.0295	90.696
154.287	949.01	-0.6871	-0.0295	91.090
154.328	949.03	-0.6873	-0.0295	91.478
154.370	949.05	-0.6875	-0.0295	91.860
154.412	949.08	-0.6877	-0.0295	92.236
154.453	949.10	-0.6880	-0.0296	92.608
154.495	949.12	-0.6882	-0.0296	92.965
154.537	949.14	-0.6884	-0.0296	93.309
154.578	949.16	-0.6885	-0.0296	93.651
154.620	949.19	-0.6886	-0.0296	93.980
154.662	949.21	-0.6887	-0.0296	94.298
154.703	949.23	-0.6889	-0.0296	94.599
154.745	949.24	-0.6891	-0.0296	94.897
154.787	949.26	-0.6891	-0.0296	95.208
154.828	949.28	-0.6891	-0.0296	95.519
154.870	949.30	-0.6892	-0.0296	95.822
154.912	949.31	-0.6893	-0.0296	96.112
154.953	949.33	-0.6896	-0.0296	96.399
154.995	949.35	-0.6899	-0.0296	96.685
155.037	949.36	-0.6900	-0.0296	96.958
155.078	949.37	-0.6901	-0.0297	97.214
155.120	949.39	-0.6902	-0.0297	97.461
155.162	949.40	-0.6902	-0.0297	97.711
155.203	949.42	-0.6903	-0.0297	97.954
155.245	949.43	-0.6905	-0.0297	98.174
155.287	949.44	-0.6906	-0.0297	98.389
155.328	949.46	-0.6906	-0.0297	98.610
155.370	949.47	-0.6907	-0.0297	98.823
155.412	949.48	-0.6909	-0.0297	99.025
155.453	949.49	-0.6912	-0.0297	99.223
155.495	949.50	-0.6913	-0.0297	99.415
155.537	949.51	-0.6915	-0.0297	99.596
155.578	949.53	-0.6917	-0.0297	99.770
155.620	949.54	-0.6920	-0.0297	99.945
155.662	949.55	-0.6921	-0.0297	100.130
155.703	949.56	-0.6921	-0.0297	100.309
155.745	949.57	-0.6923	-0.0297	100.472
155.787	949.57	-0.6925	-0.0298	100.639
155.828	949.58	-0.6926	-0.0298	100.815
155.870	949.59	-0.6928	-0.0298	100.987
155.912	949.60	-0.6930	-0.0298	101.141
155.953	949.61	-0.6931	-0.0298	101.282
155.995	949.62	-0.6933	-0.0298	101.422
156.037	949.63	-0.6933	-0.0298	101.553
156.078	949.63	-0.6932	-0.0298	101.676
156.120	949.64	-0.6934	-0.0298	101.800
156.162	949.65	-0.6937	-0.0298	101.931
156.203	949.66	-0.6938	-0.0298	102.073
156.245	949.66	-0.6940	-0.0298	102.207
156.287	949.67	-0.6942	-0.0298	102.340
156.328	949.68	-0.6945	-0.0298	102.479
156.370	949.68	-0.6949	-0.0299	102.609
156.412	949.69	-0.6952	-0.0299	102.728
156.453	949.69	-0.6956	-0.0299	102.828
156.495	949.70	-0.6960	-0.0299	102.919
156.537	949.71	-0.6961	-0.0299	103.019
156.578	949.71	-0.6962	-0.0299	103.109
156.620	949.72	-0.6964	-0.0299	103.194
156.662	949.73	-0.6967	-0.0299	103.291
156.703	949.73	-0.6969	-0.0299	103.392
156.745	949.74	-0.6972	-0.0300	103.497
156.787	949.74	-0.6975	-0.0300	103.599
156.828	949.75	-0.6977	-0.0300	103.682
156.870	949.76	-0.6978	-0.0300	103.756
156.912	949.76	-0.6982	-0.0300	103.832
156.953	949.76	-0.6985	-0.0300	103.907
156.995	949.77	-0.6987	-0.0300	103.994
157.037	949.77	-0.6990	-0.0300	104.090
157.078	949.78	-0.6993	-0.0300	104.175
157.120	949.78	-0.6996	-0.0301	104.244
157.162	949.78	-0.6999	-0.0301	104.305
157.203	949.79	-0.7000	-0.0301	104.369
157.245	949.79	-0.7003	-0.0301	104.439
157.287	949.80	-0.7006	-0.0301	104.507
157.328	949.80	-0.7009	-0.0301	104.571
157.370	949.81	-0.7010	-0.0301	104.641
157.412	949.81	-0.7011	-0.0301	104.714
157.453	949.81	-0.7012	-0.0301	104.779
157.495	949.82	-0.7013	-0.0301	104.831
157.537	949.82	-0.7014	-0.0301	104.883
157.578	949.82	-0.7016	-0.0301	104.940
157.620	949.83	-0.7018	-0.0302	104.996
157.662	949.83	-0.7021	-0.0302	105.050
157.703	949.83	-0.7022	-0.0302	105.093
157.745	949.84	-0.7024	-0.0302	105.135
157.787	949.84	-0.7025	-0.0302	105.177
157.828	949.84	-0.7028	-0.0302	105.212
157.870	949.85	-0.7030	-0.0302	105.248
157.912	949.85	-0.7033	-0.0302	105.289
157.953	949.85	-0.7037	-0.0302	105.336
157.995	949.86	-0.7040	-0.0302	105.392
158.037	949.86	-0.7043	-0.0303	105.449
158.078	949.86	-0.7045	-0.0303	105.498
158.120	949.86	-0.7048	-0.0303	105.544
158.162	949.87	-0.7052	-0.0303	105.590
158.203	949.87	-0.7056	-0.0303	105.636
158.245	949.87	-0.7059	-0.0303	105.674
158.287	949.87	-0.7062	-0.0303	105.705
158.328	949.88	-0.7064	-0.0304	105.741
158.370	949.88	-0.7067	-0.0304	105.780
158.412	949.88	-0.7069	-0.0304	105.813
158.453	949.88	-0.7073	-0.0304	105.848
158.495	949.88	-0.7075	-0.0304	105.886
158.537	949.89	-0.7078	-0.0304	105.916
158.578	949.89	-0.7081	-0.0304	105.951
158.620	949.89	-0.7085	-0.0304	105.987
158.662	949.89	-0.7088	-0.0305	106.023
158.703	949.90	-0.7090	-0.0305	106.061
158.745	949.90	-0.7093	-0.0305	106.088
158.787	949.90	-0.7095	-0.0305	106.111
158.828	949.90	-0.7097	-0.0305	106.135
158.870	949.90	-0.7100	-0.0305	106.165
158.912	949.90	-0.7101	-0.0305	106.202
158.953	949.91	-0.7104	-0.0305	106.237
158.995	949.91	-0.7107	-0.0305	106.261
159.037	949.91	-0.7109	-0.0305	106.278
159.078	949.91	-0.7111	-0.0306	106.295
159.120	949.91	-0.7113	-0.0306	106.317
159.162	949.91	-0.7114	-0.0306	106.342
159.203	949.92	-0.7114	-0.0306	106.373
159.245	949.92	-0.7114	-0.0306	106.401
159.287	949.92	-0.7115	-0.0306	106.422
159.328	949.92	-0.7116	-0.0306	106.442
159.370	949.92	-0.7118	-0.0306	106.461
159.412	949.92	-0.7123	-0.0306	106.481
159.453	949.93	-0.7125	-0.0306	106.504
159.495	949.93	-0.7127	-0.0306	106.527
159.537	949.93	-0.7130	-0.0306	106.555
159.578	949.93	-0.7131	-0.0306	106.585
159.620	949.93	-0.7132	-0.0306	106.613
159.662	949.93	-0.7134	-0.0307	106.645
159.703	949.93	-0.7137	-0.0307	106.677
159.745	949.93	-0.7140	-0.0307	106.706
159.787	949.93	-0.7143	-0.0307	106.728
159.828	949.94	-0.7147	-0.0307	106.740
159.870	949.94	-0.7150	-0.0307	106.750
159.912	949.94	-0.7153	-0.0307	106.769
159.953	949.94	-0.7155	-0.0307	106.785
159.995	949.94	-0.7156	-0.0307	106.794
160.037	949.94	-0.7157	-0.0308	106.802
160.078	949.95	-0.7159	-0.0308	106.810
160.120	949.95	-0.7160	-0.0308	106.820
160.162	949.95	-0.7162	-0.0308	106.831
160.203	949.95	-0.7165	-0.0308	106.844
160.245	949.95	-0.7168	-0.0308	106.862
160.287	949.95	-0.7171	-0.0308	106.879
160.328	949.95	-0.7174	-0.0308	106.894
160.370	949.95	-0.7176	-0.0308	106.907
160.412	949.95	-0.7179	-0.0308	106.924
160.453	949.95	-0.7182	-0.0309	106.943
160.495	949.95	-0.7185	-0.0309	106.958
160.537	949.95	-0.7188	-0.0309	106.975
160.578	949.96	-0.7190	-0.0309	106.990
160.620	949.96	-0.7192	-0.0309	107.006
160.662	949.96	-0.7195	-0.0309	107.025
160.703	949.96	-0.7197	-0.0309	107.047
160.745	949.96	-0.7199	-0.0309	107.072
160.787	949.96	-0.7202	-0.0309	107.091
160.828	949.96	-0.7205	-0.0310	107.105
160.870	949.96	-0.7208	-0.0310	107.119
160.912	949.96	-0.7212	-0.0310	107.134
160.953	949.96	-0.7216	-0.0310	107.149
160.995	949.96	-0.7220	-0.0310	107.166
161.037	949.96	-0.7223	-0.0310	107.185
161.078	949.96	-0.7225	-0.0310	107.202
161.120	949.96	-0.7226	-0.0310	107.215
161.162	949.96	-0.7227	-0.0310	107.228
161.203	949.96	-0.7228	-0.0311	107.240
161.245	949.97	-0.7235	-0.0311	107.255
161.287	949.97	-0.7246	-0.0311	107.266
161.328	949.97	-0.7259	-0.0312	107.271
161.370	949.97	-0.7269	-0.0312	107.274
161.412	949.97	-0.7278	-0.0313	107.279
161.453	949.97	-0.7286	-0.0313	107.287
161.495	949.97	-0.7293	-0.0313	107.297
161.537	949.97	-0.7298	-0.0314	107.308
161.578	949.97	-0.7301	-0.0314	107.320
161.620	949.97	-0.7304	-0.0314	107.334
161.662	949.97	-0.7308	-0.0314	107.346
161.703	949.97	-0.7312	-0.0314	107.358
161.745	949.97	-0.7315	-0.0314	107.374
161.787	949.97	-0.7318	-0.0314	107.390
161.828	949.98	-0.7321	-0.0315	107.407
161.870	949.98	-0.7322	-0.0315	107.425
161.912	949.98	-0.7324	-0.0315	107.443
161.953	949.98	-0.7328	-0.0315	107.460
161.995	949.98	-0.7332	-0.0315	107.478
162.037	949.98	-0.7335	-0.0315	107.499
162.078	949.98	-0.7338	-0.0315	107.517
162.120	949.98	-0.7341	-0.0315	107.528
162.162	949.98	-0.7345	-0.0316	107.539
162.203	949.98	-0.7349	-0.0316	107.549
162.245	949.98	-0.7351	-0.0316	107.559
162.287	949.98	-0.7352	-0.0316	107.570
162.328	949.98	-0.7353	-0.0316	107.581
162.370	949.98	-0.7353	-0.0316	107.588
162.412	949.98	-0.7355	-0.0316	107.594
162.453	949.98	-0.7359	-0.0316	107.600
162.495	949.98	-0.7363	-0.0316	107.605
162.537	949.99	-0.7365	-0.0316	107.611
162.578	949.99	-0.7367	-0.0317	107.618
162.620		-0.7369	-0.0317
162.653		-0.7371	-0.0317