File: PSO Kinetics/data/softwood-5Kmin_2.txt
Filename	softwood-5Kmin_2
Instrument name	0650-0369 (192.168.1.2)
Operator	ca527
rundate	1/10/2023
Sample name	softwood-5Kmin_2
proceduresegments	Select Gas: Gas 1 ; Ramp 10.00 °C/min to 110.00 °C; Isothermal 30.0 min; Ramp 5.00 °C/min to 900.00 °C; Isothermal 30.0 min; Select Gas: Gas 2 ; Ramp 10.00 °C/min to 950.00 °C; Isothermal 10.0 min; Data Off ; Equilibrate 30.00 °C
[step]
Ramp 10.00 °C/min to 110.00 °C
Time	Temperature	Weight	Weight	Heat Flow
min	°C	%	mg	mW
0.003		100.0229	4.2635
0.037		100.1158	4.2674
0.070	22.67	100.1727	4.2699	-26.683
0.103	22.81	100.1919	4.2707	-26.551
0.137	22.95	100.2023	4.2711	-26.438
0.170	23.09	100.2082	4.2714	-26.336
0.203	23.23	100.2106	4.2715	-26.240
0.237	23.37	100.2098	4.2715	-26.149
0.270	23.50	100.2059	4.2713	-26.063
0.303	23.63	100.1988	4.2710	-25.981
0.337	23.76	100.1889	4.2706	-25.905
0.370	23.90	100.1764	4.2700	-25.836
0.403	24.03	100.1615	4.2694	-25.767
0.437	24.16	100.1446	4.2687	-25.699
0.470	24.29	100.1255	4.2679	-25.640
0.503	24.43	100.1042	4.2670	-25.591
0.537	24.58	100.0806	4.2659	-25.546
0.570	24.73	100.0551	4.2649	-25.506
0.603	24.88	100.0279	4.2637	-25.471
0.637	25.04	99.9995	4.2625	-25.444
0.670	25.21	99.9701	4.2612	-25.420
0.703	25.39	99.9399	4.2600	-25.401
0.737	25.57	99.9092	4.2586	-25.383
0.770	25.75	99.8784	4.2573	-25.367
0.803	25.95	99.8478	4.2560	-25.356
0.837	26.15	99.8176	4.2547	-25.350
0.870	26.36	99.7881	4.2535	-25.342
0.903	26.57	99.7591	4.2522	-25.328
0.937	26.79	99.7311	4.2510	-25.310
0.970	27.02	99.7040	4.2499	-25.285
1.003	27.26	99.6778	4.2488	-25.253
1.037	27.50	99.6524	4.2477	-25.208
1.070	27.75	99.6277	4.2466	-25.153
1.103	28.01	99.6036	4.2456	-25.091
1.137	28.28	99.5801	4.2446	-25.013
1.170	28.55	99.5570	4.2436	-24.921
1.203	28.83	99.5342	4.2427	-24.820
1.237	29.11	99.5112	4.2417	-24.703
1.270	29.41	99.4883	4.2407	-24.574
1.303	29.70	99.4653	4.2397	-24.434
1.337	30.01	99.4420	4.2387	-24.285
1.370	30.32	99.4183	4.2377	-24.123
1.403	30.64	99.3943	4.2367	-23.952
1.437	30.96	99.3700	4.2357	-23.775
1.470	31.28	99.3454	4.2346	-23.588
1.503	31.61	99.3203	4.2335	-23.387
1.537	31.95	99.2948	4.2325	-23.179
1.570	32.29	99.2689	4.2314	-22.963
1.603	32.63	99.2428	4.2302	-22.741
1.637	32.98	99.2163	4.2291	-22.510
1.670	33.33	99.1893	4.2280	-22.273
1.703	33.68	99.1620	4.2268	-22.031
1.737	34.04	99.1343	4.2256	-21.784
1.770	34.40	99.1062	4.2244	-21.536
1.803	34.76	99.0778	4.2232	-21.285
1.837	35.12	99.0490	4.2220	-21.029
1.870	35.49	99.0199	4.2207	-20.766
1.903	35.86	98.9904	4.2195	-20.502
1.937	36.23	98.9607	4.2182	-20.236
1.970	36.60	98.9307	4.2169	-19.965
2.003	36.97	98.9002	4.2156	-19.691
2.037	37.34	98.8694	4.2143	-19.418
2.070	37.72	98.8383	4.2130	-19.145
2.103	38.10	98.8068	4.2117	-18.869
2.137	38.47	98.7751	4.2103	-18.590
2.170	38.85	98.7430	4.2089	-18.312
2.203	39.22	98.7107	4.2076	-18.031
2.237	39.60	98.6780	4.2062	-17.751
2.270	39.98	98.6451	4.2048	-17.469
2.303	40.36	98.6120	4.2033	-17.188
2.337	40.73	98.5786	4.2019	-16.906
2.370	41.11	98.5448	4.2005	-16.624
2.403	41.48	98.5108	4.1990	-16.347
2.437	41.86	98.4767	4.1976	-16.067
2.470	42.24	98.4424	4.1961	-15.789
2.503	42.61	98.4078	4.1946	-15.511
2.537	42.98	98.3729	4.1932	-15.233
2.570	43.36	98.3378	4.1917	-14.954
2.603	43.73	98.3026	4.1902	-14.677
2.637	44.10	98.2672	4.1887	-14.405
2.670	44.47	98.2316	4.1871	-14.136
2.703	44.84	98.1958	4.1856	-13.869
2.737	45.21	98.1598	4.1841	-13.600
2.770	45.58	98.1236	4.1825	-13.330
2.803	45.94	98.0872	4.1810	-13.061
2.837	46.31	98.0507	4.1794	-12.797
2.870	46.68	98.0141	4.1779	-12.538
2.903	47.04	97.9774	4.1763	-12.278
2.937	47.40	97.9404	4.1747	-12.015
2.970	47.76	97.9034	4.1731	-11.755
3.003	48.13	97.8663	4.1716	-11.498
3.037	48.49	97.8292	4.1700	-11.244
3.070	48.84	97.7920	4.1684	-10.992
3.103	49.20	97.7547	4.1668	-10.740
3.137	49.56	97.7174	4.1652	-10.496
3.170	49.92	97.6800	4.1636	-10.252
3.203	50.27	97.6427	4.1620	-10.011
3.237	50.62	97.6054	4.1604	-9.771
3.270	50.98	97.5680	4.1588	-9.531
3.303	51.33	97.5306	4.1573	-9.290
3.337	51.68	97.4932	4.1557	-9.054
3.370	52.03	97.4558	4.1541	-8.822
3.403	52.38	97.4184	4.1525	-8.591
3.437	52.73	97.3811	4.1509	-8.356
3.470	53.08	97.3439	4.1493	-8.126
3.503	53.43	97.3067	4.1477	-7.903
3.537	53.78	97.2695	4.1461	-7.680
3.570	54.12	97.2325	4.1445	-7.455
3.603	54.47	97.1957	4.1430	-7.235
3.637	54.81	97.1592	4.1414	-7.016
3.670	55.16	97.1228	4.1399	-6.800
3.703	55.50	97.0866	4.1383	-6.583
3.737	55.85	97.0505	4.1368	-6.373
3.770	56.19	97.0146	4.1353	-6.161
3.803	56.54	96.9790	4.1337	-5.952
3.837	56.88	96.9437	4.1322	-5.742
3.870	57.22	96.9087	4.1307	-5.535
3.903	57.56	96.8738	4.1293	-5.330
3.937	57.91	96.8390	4.1278	-5.127
3.970	58.25	96.8044	4.1263	-4.924
4.003	58.59	96.7701	4.1248	-4.726
4.037	58.93	96.7363	4.1234	-4.526
4.070	59.27	96.7027	4.1220	-4.329
4.103	59.61	96.6695	4.1205	-4.131
4.137	59.95	96.6365	4.1191	-3.939
4.170	60.29	96.6038	4.1177	-3.749
4.203	60.64	96.5716	4.1164	-3.559
4.237	60.98	96.5398	4.1150	-3.370
4.270	61.32	96.5082	4.1137	-3.181
4.303	61.66	96.4770	4.1123	-2.994
4.337	62.00	96.4462	4.1110	-2.807
4.370	62.34	96.4157	4.1097	-2.622
4.403	62.68	96.3854	4.1084	-2.441
4.437	63.02	96.3554	4.1072	-2.259
4.470	63.36	96.3257	4.1059	-2.082
4.503	63.70	96.2965	4.1047	-1.905
4.537	64.04	96.2676	4.1034	-1.726
4.570	64.38	96.2392	4.1022	-1.548
4.603	64.73	96.2114	4.1010	-1.370
4.637	65.07	96.1838	4.0998	-1.194
4.670	65.41	96.1566	4.0987	-1.022
4.703	65.75	96.1297	4.0975	-0.853
4.737	66.09	96.1033	4.0964	-0.684
4.770	66.43	96.0773	4.0953	-0.515
4.803	66.77	96.0516	4.0942	-0.349
4.837	67.12	96.0264	4.0931	-0.184
4.870	67.46	96.0016	4.0921	-0.016
4.903	67.80	95.9772	4.0910	0.151
4.937	68.14	95.9531	4.0900	0.312
4.970	68.49	95.9294	4.0890	0.466
5.003	68.83	95.9061	4.0880	0.622
5.037	69.17	95.8833	4.0870	0.780
5.070	69.52	95.8609	4.0861	0.935
5.103	69.86	95.8388	4.0851	1.088
5.137	70.20	95.8170	4.0842	1.241
5.170	70.55	95.7955	4.0833	1.393
5.203	70.89	95.7746	4.0824	1.543
5.237	71.24	95.7540	4.0815	1.689
5.270	71.58	95.7339	4.0807	1.835
5.303	71.92	95.7142	4.0798	1.980
5.337	72.27	95.6950	4.0790	2.125
5.370	72.61	95.6761	4.0782	2.266
5.403	72.96	95.6576	4.0774	2.406
5.437	73.30	95.6394	4.0766	2.545
5.470	73.65	95.6216	4.0759	2.683
5.503	74.00	95.6040	4.0751	2.822
5.537	74.34	95.5868	4.0744	2.959
5.570	74.69	95.5702	4.0737	3.095
5.603	75.04	95.5540	4.0730	3.230
5.637	75.38	95.5381	4.0723	3.368
5.670	75.73	95.5225	4.0717	3.498
5.703	76.07	95.5072	4.0710	3.625
5.737	76.42	95.4924	4.0704	3.749
5.770	76.77	95.4779	4.0698	3.875
5.803	77.11	95.4638	4.0692	3.997
5.837	77.46	95.4501	4.0686	4.122
5.870	77.81	95.4367	4.0680	4.244
5.903	78.15	95.4236	4.0674	4.364
5.937	78.50	95.4107	4.0669	4.480
5.970	78.85	95.3981	4.0664	4.594
6.003	79.20	95.3857	4.0658	4.707
6.037	79.54	95.3736	4.0653	4.819
6.070	79.89	95.3618	4.0648	4.930
6.103	80.24	95.3503	4.0643	5.041
6.137	80.58	95.3391	4.0638	5.152
6.170	80.93	95.3283	4.0634	5.260
6.203	81.28	95.3178	4.0629	5.368
6.237	81.63	95.3077	4.0625	5.474
6.270	81.97	95.2979	4.0621	5.575
6.303	82.32	95.2883	4.0617	5.678
6.337	82.67	95.2790	4.0613	5.780
6.370	83.02	95.2700	4.0609	5.880
6.403	83.36	95.2611	4.0605	5.976
6.437	83.71	95.2526	4.0602	6.066
6.470	84.06	95.2443	4.0598	6.159
6.503	84.40	95.2363	4.0595	6.251
6.537	84.75	95.2284	4.0591	6.341
6.570	85.10	95.2208	4.0588	6.432
6.603	85.44	95.2134	4.0585	6.523
6.637	85.79	95.2063	4.0582	6.609
6.670	86.14	95.1993	4.0579	6.693
6.703	86.49	95.1926	4.0576	6.780
6.737	86.83	95.1862	4.0573	6.862
6.770	87.18	95.1800	4.0571	6.940
6.803	87.52	95.1740	4.0568	7.018
6.837	87.87	95.1682	4.0566	7.098
6.870	88.22	95.1625	4.0563	7.173
6.903	88.56	95.1571	4.0561	7.248
6.937	88.91	95.1519	4.0559	7.323
6.970	89.25	95.1467	4.0556	7.398
7.003	89.60	95.1417	4.0554	7.468
7.037	89.95	95.1370	4.0552	7.535
7.070	90.29	95.1325	4.0550	7.602
7.103	90.64	95.1282	4.0549	7.671
7.137	90.98	95.1239	4.0547	7.737
7.170	91.33	95.1196	4.0545	7.800
7.203	91.68	95.1154	4.0543	7.861
7.237	92.02	95.1115	4.0541	7.919
7.270	92.37	95.1077	4.0540	7.978
7.303	92.71	95.1041	4.0538	8.037
7.337	93.06	95.1006	4.0537	8.097
7.370	93.40	95.0974	4.0535	8.153
7.403	93.75	95.0944	4.0534	8.203
7.437	94.09	95.0914	4.0533	8.254
7.470	94.43	95.0884	4.0532	8.307
7.503	94.78	95.0856	4.0530	8.354
7.537	95.12	95.0829	4.0529	8.400
7.570	95.47	95.0802	4.0528	8.447
7.603	95.81	95.0777	4.0527	8.495
7.637	96.15	95.0749	4.0526	8.552
7.670	96.50	95.0622	4.0520	8.618
7.703	96.84	95.0389	4.0510	8.686
7.737	97.19	95.0097	4.0498	8.743
7.770	97.53	94.9843	4.0487	8.795
7.803	97.87	94.9623	4.0478	8.841
7.837	98.22	94.9437	4.0470	8.888
7.870	98.56	94.9276	4.0463	8.930
7.903	98.91	94.9135	4.0457	8.970
7.937	99.25	94.9011	4.0452	9.003
7.970	99.59	94.8901	4.0447	9.035
8.003	99.94	94.8804	4.0443	9.065
8.037	100.28	94.8720	4.0439	9.094
8.070	100.63	94.8647	4.0436	9.120
8.103	100.97	94.8620	4.0435	9.135
8.137	101.31	94.8706	4.0439	9.141
8.170	101.66	94.8878	4.0446	9.144
8.203	102.00	94.9041	4.0453	9.147
8.237	102.34	94.9176	4.0459	9.154
8.270	102.69	94.9291	4.0464	9.164
8.303	103.03	94.9386	4.0468	9.178
8.337	103.37	94.9467	4.0471	9.196
8.370	103.72	94.9534	4.0474	9.216
8.403	104.06	94.9589	4.0476	9.234
8.437	104.40	94.9634	4.0478	9.247
8.470	104.74	94.9672	4.0480	9.260
8.503	105.09	94.9701	4.0481	9.275
8.537	105.43	94.9725	4.0482	9.292
8.570	105.77	94.9744	4.0483	9.305
8.603	106.11	94.9758	4.0484	9.318
8.637	106.46	94.9769	4.0484	9.329
8.653	106.63	94.9774	4.0484	9.336

[step]
Isothermal 30.0 min
Time	Temperature	Weight	Weight	Heat Flow
min	°C	%	mg	mW
8.662	106.71	94.9776	4.0484	9.339
8.770	107.82	94.9788	4.0485	9.377
8.878	108.89	94.9780	4.0484	9.456
8.987	109.89	94.9753	4.0483	9.625
9.095	110.80	94.9717	4.0482	9.850
9.203	111.58	94.9672	4.0480	10.122
9.312	112.25	94.9621	4.0478	10.414
9.420	112.78	94.9564	4.0475	10.733
9.528	113.18	94.9514	4.0473	11.072
9.637	113.44	94.9456	4.0471	11.384
9.745	113.60	94.9397	4.0468	11.652
9.853	113.65	94.9338	4.0466	11.875
9.962	113.62	94.9278	4.0463	12.045
10.070	113.52	94.9220	4.0461	12.166
10.178	113.38	94.9164	4.0458	12.221
10.287	113.22	94.9118	4.0456	12.233
10.395	113.04	94.9081	4.0455	12.217
10.503	112.87	94.9046	4.0453	12.152
10.612	112.70	94.9019	4.0452	12.060
10.720	112.54	94.8996	4.0451	11.955
10.828	112.40	94.8976	4.0450	11.856
10.937	112.27	94.8957	4.0449	11.738
11.045	112.17	94.8939	4.0449	11.629
11.153	112.09	94.8928	4.0448	11.513
11.262	112.03	94.8915	4.0448	11.413
11.370	112.00	94.8903	4.0447	11.329
11.478	111.99	94.8891	4.0447	11.249
11.587	112.00	94.8881	4.0446	11.174
11.695	112.03	94.8868	4.0446	11.119
11.803	112.07	94.8862	4.0445	11.066
11.912	112.12	94.8856	4.0445	11.028
12.020	112.19	94.8845	4.0445	10.999
12.128	112.26	94.8836	4.0444	10.978
12.237	112.34	94.8826	4.0444	10.963
12.345	112.42	94.8817	4.0443	10.951
12.453	112.50	94.8808	4.0443	10.947
12.562	112.57	94.8800	4.0443	10.949
12.670	112.65	94.8793	4.0442	10.953
12.778	112.72	94.8784	4.0442	10.964
12.887	112.79	94.8776	4.0442	10.976
12.995	112.85	94.8768	4.0441	10.995
13.103	112.90	94.8758	4.0441	11.010
13.212	112.95	94.8744	4.0440	11.027
13.320	112.99	94.8733	4.0440	11.043
13.428	113.03	94.8721	4.0439	11.056
13.537	113.05	94.8713	4.0439	11.068
13.645	113.08	94.8704	4.0439	11.083
13.753	113.10	94.8692	4.0438	11.093
13.862	113.11	94.8684	4.0438	11.101
13.970	113.12	94.8675	4.0437	11.109
14.078	113.13	94.8667	4.0437	11.111
14.187	113.13	94.8657	4.0437	11.109
14.295	113.14	94.8647	4.0436	11.108
14.403	113.14	94.8639	4.0436	11.106
14.512	113.14	94.8629	4.0435	11.100
14.620	113.14	94.8619	4.0435	11.097
14.728	113.14	94.8613	4.0435	11.092
14.837	113.14	94.8607	4.0434	11.085
14.945	113.14	94.8601	4.0434	11.075
15.053	113.14	94.8593	4.0434	11.067
15.162	113.14	94.8587	4.0434	11.056
15.270	113.15	94.8579	4.0433	11.047
15.378	113.15	94.8567	4.0433	11.039
15.487	113.15	94.8560	4.0432	11.026
15.595	113.16	94.8554	4.0432	11.018
15.703	113.17	94.8547	4.0432	11.011
15.812	113.17	94.8540	4.0432	11.004
15.920	113.18	94.8536	4.0431	10.995
16.028	113.19	94.8533	4.0431	10.990
16.137	113.19	94.8527	4.0431	10.982
16.245	113.20	94.8517	4.0431	10.973
16.353	113.21	94.8511	4.0430	10.967
16.462	113.22	94.8505	4.0430	10.961
16.570	113.23	94.8498	4.0430	10.956
16.678	113.23	94.8491	4.0430	10.952
16.787	113.24	94.8483	4.0429	10.945
16.895	113.25	94.8477	4.0429	10.937
17.003	113.25	94.8469	4.0429	10.936
17.112	113.26	94.8461	4.0428	10.931
17.220	113.26	94.8454	4.0428	10.926
17.328	113.26	94.8449	4.0428	10.922
17.437	113.27	94.8444	4.0428	10.916
17.545	113.27	94.8438	4.0427	10.910
17.653	113.27	94.8437	4.0427	10.903
17.762	113.27	94.8431	4.0427	10.901
17.870	113.28	94.8423	4.0427	10.896
17.978	113.28	94.8416	4.0426	10.890
18.087	113.28	94.8406	4.0426	10.887
18.195	113.28	94.8402	4.0426	10.882
18.303	113.28	94.8400	4.0426	10.876
18.412	113.28	94.8394	4.0425	10.871
18.520	113.28	94.8387	4.0425	10.863
18.628	113.28	94.8383	4.0425	10.859
18.737	113.28	94.8379	4.0425	10.856
18.845	113.28	94.8376	4.0425	10.850
18.953	113.28	94.8370	4.0424	10.843
19.062	113.28	94.8364	4.0424	10.837
19.170	113.29	94.8356	4.0424	10.833
19.278	113.29	94.8350	4.0424	10.825
19.387	113.29	94.8345	4.0423	10.818
19.495	113.29	94.8342	4.0423	10.813
19.603	113.29	94.8339	4.0423	10.808
19.712	113.29	94.8339	4.0423	10.803
19.820	113.29	94.8336	4.0423	10.796
19.928	113.29	94.8330	4.0423	10.790
20.037	113.29	94.8324	4.0422	10.782
20.145	113.29	94.8315	4.0422	10.776
20.253	113.29	94.8310	4.0422	10.771
20.362	113.29	94.8308	4.0422	10.768
20.470	113.29	94.8303	4.0422	10.761
20.578	113.29	94.8296	4.0421	10.756
20.687	113.29	94.8291	4.0421	10.753
20.795	113.29	94.8287	4.0421	10.748
20.903	113.29	94.8283	4.0421	10.745
21.012	113.29	94.8280	4.0421	10.739
21.120	113.29	94.8278	4.0420	10.731
21.228	113.29	94.8275	4.0420	10.723
21.337	113.29	94.8274	4.0420	10.718
21.445	113.29	94.8267	4.0420	10.713
21.553	113.29	94.8263	4.0420	10.710
21.662	113.29	94.8260	4.0420	10.703
21.770	113.29	94.8254	4.0419	10.696
21.878	113.29	94.8248	4.0419	10.689
21.987	113.29	94.8244	4.0419	10.684
22.095	113.29	94.8241	4.0419	10.678
22.203	113.29	94.8241	4.0419	10.674
22.312	113.28	94.8237	4.0419	10.669
22.420	113.28	94.8234	4.0419	10.667
22.528	113.28	94.8231	4.0418	10.660
22.637	113.28	94.8227	4.0418	10.651
22.745	113.28	94.8222	4.0418	10.642
22.853	113.28	94.8216	4.0418	10.633
22.962	113.28	94.8214	4.0418	10.628
23.070	113.28	94.8210	4.0418	10.622
23.178	113.28	94.8207	4.0417	10.619
23.287	113.28	94.8204	4.0417	10.617
23.395	113.28	94.8199	4.0417	10.611
23.503	113.28	94.8202	4.0417	10.602
23.612	113.28	94.8199	4.0417	10.599
23.720	113.28	94.8194	4.0417	10.592
23.828	113.28	94.8190	4.0417	10.585
23.937	113.27	94.8184	4.0416	10.581
24.045	113.27	94.8177	4.0416	10.574
24.153	113.27	94.8175	4.0416	10.569
24.262	113.27	94.8169	4.0416	10.562
24.370	113.27	94.8167	4.0416	10.557
24.478	113.27	94.8162	4.0416	10.551
24.587	113.27	94.8160	4.0415	10.544
24.695	113.27	94.8159	4.0415	10.541
24.803	113.27	94.8156	4.0415	10.536
24.912	113.27	94.8151	4.0415	10.530
25.020	113.27	94.8150	4.0415	10.526
25.128	113.27	94.8147	4.0415	10.523
25.237	113.27	94.8144	4.0415	10.516
25.345	113.27	94.8139	4.0415	10.512
25.453	113.27	94.8135	4.0414	10.508
25.562	113.27	94.8130	4.0414	10.503
25.670	113.27	94.8128	4.0414	10.500
25.778	113.27	94.8126	4.0414	10.493
25.887	113.27	94.8120	4.0414	10.490
25.995	113.27	94.8122	4.0414	10.487
26.103	113.26	94.8117	4.0414	10.478
26.212	113.26	94.8115	4.0414	10.470
26.320	113.26	94.8109	4.0413	10.468
26.428	113.26	94.8103	4.0413	10.462
26.537	113.26	94.8096	4.0413	10.453
26.645	113.26	94.8094	4.0413	10.449
26.753	113.26	94.8091	4.0413	10.441
26.862	113.26	94.8089	4.0412	10.439
26.970	113.26	94.8087	4.0412	10.435
27.078	113.26	94.8083	4.0412	10.433
27.187	113.26	94.8081	4.0412	10.429
27.295	113.26	94.8078	4.0412	10.424
27.403	113.26	94.8076	4.0412	10.417
27.512	113.26	94.8074	4.0412	10.414
27.620	113.26	94.8072	4.0412	10.410
27.728	113.26	94.8069	4.0412	10.404
27.837	113.25	94.8069	4.0412	10.399
27.945	113.25	94.8068	4.0412	10.394
28.053	113.25	94.8066	4.0411	10.389
28.162	113.25	94.8061	4.0411	10.381
28.270	113.25	94.8057	4.0411	10.375
28.378	113.25	94.8058	4.0411	10.370
28.487	113.25	94.8055	4.0411	10.364
28.595	113.25	94.8047	4.0411	10.358
28.703	113.25	94.8046	4.0411	10.354
28.812	113.25	94.8045	4.0411	10.352
28.920	113.25	94.8040	4.0410	10.348
29.028	113.25	94.8037	4.0410	10.340
29.137	113.25	94.8035	4.0410	10.332
29.245	113.25	94.8034	4.0410	10.329
29.353	113.25	94.8035	4.0410	10.325
29.462	113.25	94.8032	4.0410	10.320
29.570	113.25	94.8026	4.0410	10.315
29.678	113.24	94.8019	4.0409	10.313
29.787	113.24	94.8019	4.0409	10.306
29.895	113.24	94.8017	4.0409	10.298
30.003	113.24	94.8014	4.0409	10.292
30.112	113.24	94.8010	4.0409	10.289
30.220	113.24	94.8003	4.0409	10.285
30.328	113.24	94.8002	4.0409	10.282
30.437	113.24	94.8000	4.0409	10.275
30.545	113.24	94.7994	4.0408	10.272
30.653	113.24	94.7989	4.0408	10.266
30.762	113.24	94.7984	4.0408	10.258
30.870	113.24	94.7980	4.0408	10.254
30.978	113.24	94.7978	4.0408	10.253
31.087	113.24	94.7978	4.0408	10.247
31.195	113.24	94.7976	4.0408	10.240
31.303	113.24	94.7973	4.0407	10.239
31.412	113.24	94.7971	4.0407	10.236
31.520	113.24	94.7969	4.0407	10.230
31.628	113.24	94.7966	4.0407	10.225
31.737	113.23	94.7966	4.0407	10.220
31.845	113.23	94.7964	4.0407	10.213
31.953	113.23	94.7965	4.0407	10.211
32.062	113.23	94.7963	4.0407	10.202
32.170	113.23	94.7961	4.0407	10.199
32.278	113.23	94.7959	4.0407	10.195
32.387	113.23	94.7956	4.0407	10.191
[...]
232.203	947.34	-4.5941	-0.1958	36.344
232.245	947.39	-4.5944	-0.1958	36.500
232.287	947.43	-4.5948	-0.1959	36.679
232.328	947.46	-4.5950	-0.1959	36.890
232.370	947.48	-4.5953	-0.1959	37.104
232.412	947.50	-4.5955	-0.1959	37.332
232.453	947.51	-4.5958	-0.1959	37.591
232.495	947.52	-4.5961	-0.1959	37.866
232.537	947.54	-4.5964	-0.1959	38.157
232.578	947.55	-4.5967	-0.1959	38.472
232.620	947.56	-4.5968	-0.1959	38.801
232.662	947.57	-4.5970	-0.1959	39.139
232.703	947.59	-4.5972	-0.1960	39.494
232.745	947.60	-4.5975	-0.1960	39.855
232.787	947.62	-4.5978	-0.1960	40.223
232.828	947.64	-4.5981	-0.1960	40.600
232.870	947.66	-4.5984	-0.1960	40.980
232.912	947.68	-4.5986	-0.1960	41.365
232.953	947.70	-4.5988	-0.1960	41.747
232.995	947.72	-4.5990	-0.1960	42.125
233.037	947.74	-4.5992	-0.1960	42.495
233.078	947.77	-4.5995	-0.1961	42.865
233.120	947.79	-4.5997	-0.1961	43.225
233.162	947.82	-4.5999	-0.1961	43.581
233.203	947.84	-4.6002	-0.1961	43.943
233.245	947.86	-4.6005	-0.1961	44.299
233.287	947.88	-4.6007	-0.1961	44.648
233.328	947.91	-4.6008	-0.1961	44.983
233.370	947.93	-4.6010	-0.1961	45.313
233.412	947.95	-4.6012	-0.1961	45.635
233.453	947.97	-4.6015	-0.1961	45.952
233.495	948.00	-4.6017	-0.1961	46.261
233.537	948.02	-4.6017	-0.1961	46.555
233.578	948.04	-4.6018	-0.1962	46.843
233.620	948.06	-4.6019	-0.1962	47.130
233.662	948.07	-4.6021	-0.1962	47.411
233.703	948.09	-4.6021	-0.1962	47.686
233.745	948.11	-4.6022	-0.1962	47.955
233.787	948.13	-4.6023	-0.1962	48.213
233.828	948.15	-4.6025	-0.1962	48.474
233.870	948.16	-4.6027	-0.1962	48.736
233.912	948.18	-4.6029	-0.1962	48.984
233.953	948.19	-4.6032	-0.1962	49.231
233.995	948.21	-4.6034	-0.1962	49.479
234.037	948.22	-4.6035	-0.1962	49.718
234.078	948.24	-4.6037	-0.1962	49.947
234.120	948.25	-4.6038	-0.1962	50.175
234.162	948.26	-4.6039	-0.1962	50.400
234.203	948.28	-4.6041	-0.1962	50.611
234.245	948.29	-4.6043	-0.1963	50.811
234.287	948.30	-4.6046	-0.1963	51.014
234.328	948.31	-4.6048	-0.1963	51.211
234.370	948.33	-4.6050	-0.1963	51.403
234.412	948.34	-4.6053	-0.1963	51.597
234.453	948.35	-4.6056	-0.1963	51.788
234.495	948.36	-4.6060	-0.1963	51.978
234.537	948.37	-4.6064	-0.1963	52.170
234.578	948.38	-4.6066	-0.1964	52.351
234.620	948.39	-4.6068	-0.1964	52.521
234.662	948.40	-4.6069	-0.1964	52.687
234.703	948.41	-4.6071	-0.1964	52.848
234.745	948.42	-4.6073	-0.1964	53.007
234.787	948.43	-4.6076	-0.1964	53.161
234.828	948.44	-4.6078	-0.1964	53.314
234.870	948.45	-4.6079	-0.1964	53.468
234.912	948.46	-4.6080	-0.1964	53.625
234.953	948.47	-4.6081	-0.1964	53.774
234.995	948.47	-4.6083	-0.1964	53.906
235.037	948.48	-4.6085	-0.1964	54.048
235.078	948.49	-4.6087	-0.1964	54.181
235.120	948.50	-4.6090	-0.1965	54.302
235.162	948.51	-4.6094	-0.1965	54.436
235.203	948.51	-4.6097	-0.1965	54.570
235.245	948.52	-4.6100	-0.1965	54.694
235.287	948.53	-4.6102	-0.1965	54.817
235.328	948.54	-4.6103	-0.1965	54.933
235.370	948.54	-4.6105	-0.1965	55.034
235.412	948.55	-4.6107	-0.1965	55.137
235.453	948.55	-4.6110	-0.1965	55.257
235.495	948.56	-4.6113	-0.1966	55.381
235.537	948.57	-4.6114	-0.1966	55.499
235.578	948.57	-4.6115	-0.1966	55.616
235.620	948.58	-4.6115	-0.1966	55.731
235.662	948.59	-4.6116	-0.1966	55.833
235.703	948.59	-4.6118	-0.1966	55.929
235.745	948.60	-4.6121	-0.1966	56.033
235.787	948.60	-4.6125	-0.1966	56.143
235.828	948.61	-4.6131	-0.1966	56.239
235.870	948.61	-4.6136	-0.1967	56.323
235.912	948.62	-4.6141	-0.1967	56.429
235.953	948.62	-4.6145	-0.1967	56.538
235.995	948.63	-4.6148	-0.1967	56.638
236.037	948.63	-4.6150	-0.1967	56.730
236.078	948.64	-4.6153	-0.1967	56.807
236.120	948.64	-4.6157	-0.1967	56.888
236.162	948.65	-4.6160	-0.1968	56.979
236.203	948.65	-4.6163	-0.1968	57.059
236.245	948.66	-4.6165	-0.1968	57.127
236.287	948.66	-4.6167	-0.1968	57.199
236.328	948.67	-4.6170	-0.1968	57.276
236.370	948.67	-4.6173	-0.1968	57.348
236.412	948.68	-4.6175	-0.1968	57.424
236.453	948.68	-4.6177	-0.1968	57.493
236.495	948.68	-4.6181	-0.1968	57.551
236.537	948.69	-4.6185	-0.1969	57.619
236.578	948.69	-4.6189	-0.1969	57.689
236.620	948.69	-4.6191	-0.1969	57.760
236.662	948.70	-4.6194	-0.1969	57.837
236.703	948.70	-4.6197	-0.1969	57.911
236.745	948.70	-4.6200	-0.1969	57.981
236.787	948.71	-4.6204	-0.1969	58.050
236.828	948.71	-4.6208	-0.1970	58.119
236.870	948.71	-4.6210	-0.1970	58.188
236.912	948.72	-4.6211	-0.1970	58.251
236.953	948.72	-4.6213	-0.1970	58.314
236.995	948.72	-4.6215	-0.1970	58.364
237.037	948.73	-4.6217	-0.1970	58.413
237.078	948.73	-4.6220	-0.1970	58.469
237.120	948.73	-4.6223	-0.1970	58.531
237.162	948.74	-4.6226	-0.1970	58.596
237.203	948.74	-4.6228	-0.1970	58.651
237.245	948.74	-4.6230	-0.1971	58.706
237.287	948.74	-4.6233	-0.1971	58.757
237.328	948.75	-4.6235	-0.1971	58.803
237.370	948.75	-4.6238	-0.1971	58.868
237.412	948.75	-4.6241	-0.1971	58.934
237.453	948.76	-4.6244	-0.1971	58.985
237.495	948.76	-4.6248	-0.1971	59.046
237.537	948.76	-4.6252	-0.1971	59.107
237.578	948.76	-4.6255	-0.1972	59.155
237.620	948.76	-4.6257	-0.1972	59.203
237.662	948.77	-4.6261	-0.1972	59.257
237.703	948.77	-4.6265	-0.1972	59.307
237.745	948.77	-4.6268	-0.1972	59.351
237.787	948.78	-4.6270	-0.1972	59.395
237.828	948.78	-4.6273	-0.1972	59.440
237.870	948.78	-4.6277	-0.1973	59.484
237.912	948.78	-4.6280	-0.1973	59.524
237.953	948.79	-4.6283	-0.1973	59.562
237.995	948.79	-4.6286	-0.1973	59.600
238.037	948.79	-4.6287	-0.1973	59.640
238.078	948.79	-4.6290	-0.1973	59.685
238.120	948.79	-4.6294	-0.1973	59.728
238.162	948.80	-4.6296	-0.1973	59.775
238.203	948.80	-4.6300	-0.1974	59.830
238.245	948.80	-4.6304	-0.1974	59.880
238.287	948.80	-4.6306	-0.1974	59.924
238.328	948.80	-4.6311	-0.1974	59.973
238.370	948.80	-4.6316	-0.1974	60.023
238.412	948.81	-4.6320	-0.1974	60.062
238.453	948.81	-4.6323	-0.1975	60.093
238.495	948.81	-4.6326	-0.1975	60.137
238.537	948.81	-4.6329	-0.1975	60.186
238.578	948.81	-4.6332	-0.1975	60.224
238.620	948.82	-4.6335	-0.1975	60.259
238.662	948.82	-4.6338	-0.1975	60.298
238.703	948.82	-4.6340	-0.1975	60.331
238.745	948.82	-4.6343	-0.1975	60.361
238.787	948.82	-4.6347	-0.1976	60.397
238.828	948.83	-4.6350	-0.1976	60.433
238.870	948.83	-4.6353	-0.1976	60.465
238.912	948.83	-4.6357	-0.1976	60.496
238.953	948.83	-4.6359	-0.1976	60.533
238.995	948.83	-4.6362	-0.1976	60.570
239.037	948.83	-4.6366	-0.1976	60.603
239.078	948.83	-4.6369	-0.1976	60.645
239.120	948.84	-4.6372	-0.1977	60.687
239.162	948.84	-4.6375	-0.1977	60.720
239.203	948.84	-4.6378	-0.1977	60.757
239.245	948.84	-4.6381	-0.1977	60.795
239.287	948.84	-4.6384	-0.1977	60.832
239.328	948.84	-4.6386	-0.1977	60.876
239.370	948.84	-4.6387	-0.1977	60.922
239.412	948.84	-4.6390	-0.1977	60.964
239.453	948.84	-4.6394	-0.1978	61.010
239.495	948.85	-4.6397	-0.1978	61.051
239.537	948.85	-4.6400	-0.1978	61.078
239.578	948.85	-4.6401	-0.1978	61.104
239.620	948.85	-4.6404	-0.1978	61.133
239.662	948.85	-4.6408	-0.1978	61.163
239.703	948.85	-4.6411	-0.1978	61.201
239.745	948.86	-4.6414	-0.1978	61.247
239.787	948.86	-4.6417	-0.1979	61.293
239.828	948.86	-4.6421	-0.1979	61.328
239.870	948.86	-4.6424	-0.1979	61.352
239.912	948.86	-4.6427	-0.1979	61.378
239.953	948.86	-4.6430	-0.1979	61.409
239.995	948.86	-4.6432	-0.1979	61.443
240.037	948.87	-4.6434	-0.1979	61.469
240.078	948.87	-4.6437	-0.1979	61.488
240.120	948.87	-4.6441	-0.1980	61.511
240.162	948.87	-4.6446	-0.1980	61.538
240.203	948.87	-4.6450	-0.1980	61.563
240.245	948.87	-4.6453	-0.1980	61.599
240.287	948.87	-4.6456	-0.1980	61.641
240.328	948.87	-4.6460	-0.1980	61.679
240.370	948.87	-4.6462	-0.1980	61.728
240.412	948.87	-4.6464	-0.1981	61.770
240.453	948.88	-4.6467	-0.1981	61.796
240.495	948.88	-4.6471	-0.1981	61.821
240.537	948.88	-4.6476	-0.1981	61.850
240.578	948.88	-4.6481	-0.1981	61.881
240.620	948.88	-4.6485	-0.1981	61.907
240.662	948.88	-4.6488	-0.1982	61.931
240.703	948.88	-4.6491	-0.1982	61.969
240.745	948.88	-4.6494	-0.1982	62.008
240.787	948.88	-4.6496	-0.1982	62.041
240.828	948.89	-4.6498	-0.1982	62.070
240.870	948.89	-4.6500	-0.1982	62.093
240.912	948.89	-4.6503	-0.1982	62.117
240.953	948.89	-4.6506	-0.1982	62.144
240.995	948.89	-4.6510	-0.1983	62.176
241.037	948.89	-4.6515	-0.1983	62.204
241.078	948.89	-4.6519	-0.1983	62.225
241.120	948.89	-4.6521	-0.1983	62.248
241.162	948.89	-4.6524	-0.1983	62.269
241.203	948.89	-4.6528	-0.1983	62.290
241.245	948.90	-4.6531	-0.1983	62.320
241.287	948.90	-4.6535	-0.1984	62.348
241.328	948.90	-4.6539	-0.1984	62.377
241.370	948.90	-4.6542	-0.1984	62.411
241.412	948.90	-4.6545	-0.1984	62.452
241.453	948.90	-4.6548	-0.1984	62.485
241.495	948.90	-4.6552	-0.1984	62.499
241.537	948.90	-4.6556	-0.1984	62.516
241.578	948.90	-4.6560	-0.1985	62.549
241.620		-4.6562	-0.1985
241.653		-4.6564	-0.1985