File: PSO Kinetics/data/softwood-10Kmin_1.txt
Filename	softwood-10Kmin_1
Instrument name	0650-0369 (192.168.1.2)
Operator	ca527
rundate	1/9/2023
Sample name	softwood-10Kmin_1
proceduresegments	Select Gas: Gas 1 ; Ramp 10.00 °C/min to 110.00 °C; Isothermal 30.0 min; Ramp 10.00 °C/min to 900.00 °C; Isothermal 30.0 min; Select Gas: Gas 2 ; Ramp 10.00 °C/min to 950.00 °C; Isothermal 10.0 min; Data Off ; Equilibrate 30.00 °C
[step]
Ramp 10.00 °C/min to 110.00 °C
Time	Temperature	Weight	Weight	Heat Flow
min	°C	%	mg	mW
0.003		100.0411	4.3204
0.037		100.2291	4.3286
0.070	22.49	100.3106	4.3321	-27.949
0.103	22.64	100.2841	4.3309	-27.758
0.137	22.79	100.2492	4.3294	-27.574
0.170	22.94	100.2191	4.3281	-27.390
0.203	23.09	100.1924	4.3270	-27.213
0.237	23.23	100.1684	4.3259	-27.046
0.270	23.37	100.1467	4.3250	-26.882
0.303	23.51	100.1266	4.3241	-26.725
0.337	23.66	100.1076	4.3233	-26.575
0.370	23.80	100.0893	4.3225	-26.428
0.403	23.94	100.0717	4.3218	-26.286
0.437	24.08	100.0544	4.3210	-26.147
0.470	24.22	100.0372	4.3203	-26.014
0.503	24.37	100.0196	4.3195	-25.893
0.537	24.52	100.0015	4.3187	-25.779
0.570	24.68	99.9830	4.3179	-25.666
0.603	24.84	99.9642	4.3171	-25.559
0.637	25.01	99.9455	4.3163	-25.464
0.670	25.19	99.9269	4.3155	-25.373
0.703	25.37	99.9089	4.3147	-25.282
0.737	25.56	99.8917	4.3140	-25.192
0.770	25.75	99.8754	4.3133	-25.104
0.803	25.95	99.8601	4.3126	-25.012
0.837	26.16	99.8459	4.3120	-24.918
0.870	26.38	99.8327	4.3114	-24.825
0.903	26.60	99.8204	4.3109	-24.730
0.937	26.83	99.8091	4.3104	-24.628
0.970	27.06	99.7985	4.3100	-24.520
1.003	27.31	99.7886	4.3095	-24.408
1.037	27.56	99.7793	4.3091	-24.285
1.070	27.81	99.7703	4.3087	-24.153
1.103	28.08	99.7614	4.3084	-24.011
1.137	28.35	99.7527	4.3080	-23.866
1.170	28.63	99.7442	4.3076	-23.710
1.203	28.91	99.7356	4.3072	-23.545
1.237	29.21	99.7267	4.3069	-23.373
1.270	29.50	99.7177	4.3065	-23.194
1.303	29.81	99.7084	4.3061	-23.000
1.337	30.11	99.6988	4.3057	-22.801
1.370	30.43	99.6889	4.3052	-22.590
1.403	30.74	99.6789	4.3048	-22.375
1.437	31.07	99.6684	4.3043	-22.154
1.470	31.40	99.6577	4.3039	-21.928
1.503	31.73	99.6465	4.3034	-21.694
1.537	32.07	99.6352	4.3029	-21.453
1.570	32.41	99.6236	4.3024	-21.204
1.603	32.75	99.6117	4.3019	-20.953
1.637	33.10	99.5996	4.3014	-20.695
1.670	33.45	99.5872	4.3008	-20.432
1.703	33.81	99.5745	4.3003	-20.163
1.737	34.17	99.5615	4.2997	-19.889
1.770	34.53	99.5481	4.2992	-19.613
1.803	34.89	99.5344	4.2986	-19.332
1.837	35.26	99.5205	4.2980	-19.050
1.870	35.62	99.5064	4.2973	-18.769
1.903	35.99	99.4920	4.2967	-18.479
1.937	36.37	99.4773	4.2961	-18.187
1.970	36.74	99.4624	4.2954	-17.894
2.003	37.11	99.4471	4.2948	-17.599
2.037	37.49	99.4316	4.2941	-17.303
2.070	37.86	99.4160	4.2934	-17.006
2.103	38.24	99.4000	4.2928	-16.709
2.137	38.61	99.3839	4.2921	-16.414
2.170	38.99	99.3675	4.2914	-16.116
2.203	39.37	99.3509	4.2906	-15.822
2.237	39.75	99.3339	4.2899	-15.528
2.270	40.12	99.3168	4.2892	-15.234
2.303	40.50	99.2995	4.2884	-14.934
2.337	40.88	99.2820	4.2877	-14.637
2.370	41.26	99.2641	4.2869	-14.345
2.403	41.63	99.2460	4.2861	-14.058
2.437	42.01	99.2277	4.2853	-13.773
2.470	42.39	99.2093	4.2845	-13.483
2.503	42.76	99.1906	4.2837	-13.195
2.537	43.14	99.1717	4.2829	-12.909
2.570	43.51	99.1524	4.2821	-12.628
2.603	43.88	99.1328	4.2812	-12.349
2.637	44.25	99.1129	4.2804	-12.071
2.670	44.62	99.0927	4.2795	-11.791
2.703	44.99	99.0723	4.2786	-11.520
2.737	45.36	99.0516	4.2777	-11.248
2.770	45.73	99.0309	4.2768	-10.978
2.803	46.10	99.0099	4.2759	-10.714
2.837	46.46	98.9886	4.2750	-10.452
2.870	46.83	98.9670	4.2741	-10.189
2.903	47.19	98.9452	4.2731	-9.932
2.937	47.56	98.9232	4.2722	-9.682
2.970	47.92	98.9011	4.2712	-9.435
3.003	48.28	98.8787	4.2702	-9.185
3.037	48.64	98.8561	4.2693	-8.936
3.070	48.99	98.8333	4.2683	-8.691
3.103	49.35	98.8103	4.2673	-8.452
3.137	49.71	98.7871	4.2663	-8.216
3.170	50.06	98.7638	4.2653	-7.986
3.203	50.42	98.7403	4.2643	-7.757
3.237	50.77	98.7167	4.2632	-7.531
3.270	51.12	98.6929	4.2622	-7.309
3.303	51.47	98.6689	4.2612	-7.091
3.337	51.82	98.6449	4.2601	-6.873
3.370	52.17	98.6208	4.2591	-6.655
3.403	52.52	98.5965	4.2581	-6.439
3.437	52.87	98.5721	4.2570	-6.225
3.470	53.22	98.5476	4.2559	-6.015
3.503	53.56	98.5232	4.2549	-5.808
3.537	53.91	98.4987	4.2538	-5.610
3.570	54.25	98.4741	4.2528	-5.414
3.603	54.59	98.4494	4.2517	-5.218
3.637	54.94	98.4245	4.2506	-5.021
3.670	55.28	98.3995	4.2495	-4.827
3.703	55.62	98.3745	4.2485	-4.638
3.737	55.97	98.3496	4.2474	-4.448
3.770	56.31	98.3247	4.2463	-4.262
3.803	56.65	98.2998	4.2452	-4.076
3.837	56.99	98.2750	4.2442	-3.894
3.870	57.33	98.2503	4.2431	-3.715
3.903	57.67	98.2256	4.2420	-3.537
3.937	58.01	98.2011	4.2410	-3.361
3.970	58.35	98.1767	4.2399	-3.188
4.003	58.69	98.1524	4.2389	-3.019
4.037	59.03	98.1281	4.2378	-2.847
4.070	59.37	98.1040	4.2368	-2.677
4.103	59.70	98.0799	4.2357	-2.510
4.137	60.04	98.0560	4.2347	-2.346
4.170	60.38	98.0323	4.2337	-2.185
4.203	60.72	98.0088	4.2327	-2.027
4.237	61.06	97.9854	4.2317	-1.864
4.270	61.39	97.9621	4.2307	-1.703
4.303	61.73	97.9389	4.2297	-1.542
4.337	62.07	97.9160	4.2287	-1.385
4.370	62.41	97.8933	4.2277	-1.233
4.403	62.75	97.8707	4.2267	-1.080
4.437	63.08	97.8483	4.2257	-0.928
4.470	63.42	97.8261	4.2248	-0.779
4.503	63.76	97.8041	4.2238	-0.634
4.537	64.10	97.7823	4.2229	-0.489
4.570	64.44	97.7607	4.2220	-0.346
4.603	64.77	97.7395	4.2210	-0.202
4.637	65.11	97.7185	4.2201	-0.062
4.670	65.45	97.6978	4.2192	0.082
4.703	65.79	97.6773	4.2184	0.222
4.737	66.13	97.6570	4.2175	0.361
4.770	66.47	97.6368	4.2166	0.500
4.803	66.81	97.6169	4.2158	0.636
4.837	67.15	97.5974	4.2149	0.765
4.870	67.49	97.5781	4.2141	0.894
4.903	67.83	97.5591	4.2133	1.030
4.937	68.16	97.5404	4.2124	1.162
4.970	68.50	97.5220	4.2116	1.295
5.003	68.85	97.5038	4.2109	1.424
5.037	69.19	97.4858	4.2101	1.553
5.070	69.53	97.4681	4.2093	1.676
5.103	69.87	97.4509	4.2086	1.800
5.137	70.21	97.4338	4.2078	1.925
5.170	70.55	97.4170	4.2071	2.047
5.203	70.89	97.4004	4.2064	2.170
5.237	71.23	97.3841	4.2057	2.291
5.270	71.58	97.3682	4.2050	2.412
5.303	71.92	97.3525	4.2043	2.525
5.337	72.26	97.3372	4.2037	2.642
5.370	72.60	97.3223	4.2030	2.758
5.403	72.94	97.3079	4.2024	2.873
5.437	73.29	97.2940	4.2018	2.985
5.470	73.63	97.2803	4.2012	3.097
5.503	73.97	97.2667	4.2006	3.209
5.537	74.32	97.2533	4.2000	3.317
5.570	74.66	97.2404	4.1995	3.423
5.603	75.00	97.2281	4.1990	3.532
5.637	75.35	97.2157	4.1984	3.639
5.670	75.69	97.2032	4.1979	3.745
5.703	76.03	97.1909	4.1974	3.848
5.737	76.38	97.1793	4.1969	3.953
5.770	76.72	97.1683	4.1964	4.053
5.803	77.07	97.1578	4.1959	4.150
5.837	77.41	97.1471	4.1955	4.248
5.870	77.75	97.1363	4.1950	4.342
5.903	78.10	97.1258	4.1945	4.438
5.937	78.44	97.1157	4.1941	4.529
5.970	78.79	97.1057	4.1937	4.622
6.003	79.13	97.0956	4.1932	4.717
6.037	79.48	97.0856	4.1928	4.813
6.070	79.82	97.0763	4.1924	4.900
6.103	80.17	97.0670	4.1920	4.985
6.137	80.51	97.0573	4.1916	5.070
6.170	80.86	97.0475	4.1912	5.153
6.203	81.20	97.0381	4.1908	5.238
6.237	81.55	97.0292	4.1904	5.325
6.270	81.89	97.0211	4.1900	5.408
6.303	82.24	97.0135	4.1897	5.486
6.337	82.59	97.0064	4.1894	5.568
6.370	82.93	96.9994	4.1891	5.647
6.403	83.28	96.9921	4.1888	5.725
6.437	83.62	96.9846	4.1884	5.799
6.470	83.97	96.9775	4.1881	5.876
6.503	84.31	96.9710	4.1879	5.951
6.537	84.66	96.9649	4.1876	6.021
6.570	85.00	96.9593	4.1873	6.089
6.603	85.35	96.9537	4.1871	6.155
6.637	85.70	96.9476	4.1868	6.225
6.670	86.04	96.9410	4.1866	6.294
6.703	86.39	96.9347	4.1863	6.359
6.737	86.73	96.9288	4.1860	6.419
6.770	87.08	96.9236	4.1858	6.479
6.803	87.42	96.9189	4.1856	6.541
6.837	87.76	96.9144	4.1854	6.602
6.870	88.11	96.9099	4.1852	6.661
6.903	88.45	96.9053	4.1850	6.718
6.937	88.80	96.9007	4.1848	6.775
6.970	89.14	96.8960	4.1846	6.829
7.003	89.49	96.8916	4.1844	6.884
7.037	89.83	96.8872	4.1842	6.934
7.070	90.18	96.8829	4.1840	6.981
7.103	90.52	96.8789	4.1839	7.031
7.137	90.86	96.8752	4.1837	7.082
7.170	91.21	96.8717	4.1836	7.131
7.203	91.55	96.8681	4.1834	7.178
7.237	91.90	96.8651	4.1833	7.223
7.270	92.24	96.8625	4.1832	7.265
7.303	92.58	96.8598	4.1831	7.305
7.337	92.93	96.8569	4.1829	7.347
7.370	93.27	96.8540	4.1828	7.387
7.403	93.62	96.8512	4.1827	7.423
7.437	93.96	96.8485	4.1826	7.460
7.470	94.30	96.8460	4.1825	7.496
7.503	94.65	96.8436	4.1824	7.528
7.537	94.99	96.8413	4.1823	7.558
7.570	95.33	96.8391	4.1822	7.592
7.603	95.68	96.8370	4.1821	7.627
7.637	96.02	96.8350	4.1820	7.658
7.670	96.36	96.8331	4.1819	7.684
7.703	96.71	96.8314	4.1818	7.707
7.737	97.05	96.8297	4.1818	7.730
7.770	97.39	96.8281	4.1817	7.754
7.803	97.73	96.8265	4.1816	7.778
7.837	98.08	96.8249	4.1815	7.804
7.870	98.42	96.8234	4.1815	7.831
7.903	98.76	96.8221	4.1814	7.852
7.937	99.10	96.8208	4.1814	7.868
7.970	99.45	96.8195	4.1813	7.883
8.003	99.79	96.8182	4.1813	7.901
8.037	100.13	96.8168	4.1812	7.919
8.070	100.47	96.8155	4.1811	7.932
8.103	100.82	96.8143	4.1811	7.943
8.137	101.16	96.8133	4.1810	7.955
8.170	101.50	96.8123	4.1810	7.967
8.203	101.84	96.8114	4.1810	7.977
8.237	102.18	96.8104	4.1809	7.988
8.270	102.52	96.8094	4.1809	7.999
8.303	102.87	96.8085	4.1808	8.008
8.337	103.21	96.8077	4.1808	8.015
8.370	103.55	96.8070	4.1808	8.022
8.403	103.89	96.8062	4.1807	8.029
8.437	104.23	96.8054	4.1807	8.034
8.470	104.58	96.8046	4.1807	8.039
8.503	104.92	96.8039	4.1806	8.046
8.537	105.26	96.8032	4.1806	8.052
8.570	105.60	96.8024	4.1806	8.056
8.603	105.94	96.8017	4.1805	8.058
8.637	106.28	96.8012	4.1805	8.059
8.662	106.54	96.8008	4.1805	8.060

[step]
Isothermal 30.0 min
Time	Temperature	Weight	Weight	Heat Flow
min	°C	%	mg	mW
8.670	106.63	96.8007	4.1805	8.060
8.778	107.73	96.7988	4.1804	8.066
8.887	108.80	96.7968	4.1803	8.106
8.995	109.80	96.7939	4.1802	8.237
9.103	110.69	96.7904	4.1801	8.411
9.212	111.48	96.7866	4.1799	8.622
9.320	112.13	96.7821	4.1797	8.825
9.428	112.66	96.7778	4.1795	9.022
9.537	113.05	96.7745	4.1794	9.205
9.645	113.30	96.7703	4.1792	9.358
9.753	113.44	96.7653	4.1790	9.444
9.862	113.48	96.7598	4.1787	9.486
9.970	113.43	96.7562	4.1786	9.495
10.078	113.32	96.7525	4.1784	9.469
10.187	113.15	96.7469	4.1782	9.365
10.295	112.97	96.7425	4.1780	9.200
10.403	112.79	96.7389	4.1778	9.018
10.512	112.60	96.7359	4.1777	8.832
10.620	112.41	96.7335	4.1776	8.658
10.728	112.24	96.7315	4.1775	8.485
10.837	112.09	96.7301	4.1775	8.322
10.945	111.96	96.7281	4.1774	8.172
11.053	111.85	96.7272	4.1773	8.033
11.162	111.77	96.7259	4.1773	7.909
11.270	111.71	96.7242	4.1772	7.806
11.378	111.68	96.7232	4.1772	7.718
11.487	111.67	96.7227	4.1771	7.646
11.595	111.68	96.7226	4.1771	7.589
11.703	111.71	96.7230	4.1771	7.547
11.812	111.75	96.7225	4.1771	7.508
11.920	111.81	96.7209	4.1771	7.483
12.028	111.88	96.7203	4.1770	7.462
12.137	111.95	96.7202	4.1770	7.452
12.245	112.03	96.7193	4.1770	7.445
12.353	112.12	96.7187	4.1770	7.447
12.462	112.20	96.7177	4.1769	7.452
12.570	112.28	96.7170	4.1769	7.464
12.678	112.36	96.7158	4.1768	7.480
12.787	112.43	96.7152	4.1768	7.497
12.895	112.50	96.7141	4.1768	7.516
13.003	112.56	96.7131	4.1767	7.536
13.112	112.61	96.7119	4.1767	7.554
13.220	112.66	96.7110	4.1766	7.570
13.328	112.70	96.7099	4.1766	7.588
13.437	112.74	96.7098	4.1766	7.598
13.545	112.77	96.7089	4.1765	7.605
13.653	112.79	96.7076	4.1765	7.613
13.762	112.81	96.7067	4.1764	7.617
13.870	112.82	96.7058	4.1764	7.616
13.978	112.83	96.7058	4.1764	7.615
14.087	112.84	96.7055	4.1764	7.612
14.195	112.84	96.7035	4.1763	7.607
14.303	112.84	96.7026	4.1763	7.603
14.412	112.84	96.7019	4.1762	7.594
14.520	112.84	96.7017	4.1762	7.586
14.628	112.84	96.7006	4.1762	7.577
14.737	112.84	96.6999	4.1761	7.566
14.845	112.84	96.6981	4.1761	7.554
14.953	112.84	96.6970	4.1760	7.541
15.062	112.84	96.6964	4.1760	7.530
15.170	112.85	96.6956	4.1760	7.520
15.278	112.85	96.6945	4.1759	7.509
15.387	112.85	96.6937	4.1759	7.499
15.495	112.86	96.6931	4.1759	7.491
15.603	112.86	96.6923	4.1758	7.484
15.712	112.87	96.6918	4.1758	7.473
15.820	112.88	96.6916	4.1758	7.464
15.928	112.88	96.6913	4.1758	7.454
16.037	112.89	96.6912	4.1758	7.445
16.145	112.90	96.6904	4.1757	7.440
16.253	112.91	96.6898	4.1757	7.440
16.362	112.92	96.6897	4.1757	7.440
16.470	112.92	96.6894	4.1757	7.436
16.578	112.93	96.6887	4.1757	7.431
16.687	112.93	96.6878	4.1756	7.426
16.795	112.94	96.6868	4.1756	7.423
16.903	112.95	96.6858	4.1755	7.423
17.012	112.96	96.6865	4.1756	7.420
17.120	112.96	96.6860	4.1755	7.417
17.228	112.96	96.6850	4.1755	7.413
17.337	112.97	96.6842	4.1755	7.408
17.445	112.97	96.6843	4.1755	7.406
17.553	112.98	96.6844	4.1755	7.403
17.662	112.98	96.6834	4.1754	7.403
17.770	112.98	96.6828	4.1754	7.399
17.878	112.98	96.6819	4.1754	7.398
17.987	112.99	96.6818	4.1754	7.393
18.095	112.99	96.6807	4.1753	7.389
18.203	112.99	96.6805	4.1753	7.382
18.312	112.99	96.6803	4.1753	7.378
18.420	112.99	96.6798	4.1753	7.374
18.528	112.99	96.6794	4.1753	7.367
18.637	112.99	96.6789	4.1752	7.363
18.745	112.99	96.6786	4.1752	7.358
18.853	112.99	96.6777	4.1752	7.357
18.962	112.99	96.6775	4.1752	7.353
19.070	112.99	96.6767	4.1751	7.348
19.178	112.99	96.6760	4.1751	7.342
19.287	112.99	96.6752	4.1751	7.336
19.395	112.99	96.6744	4.1750	7.329
19.503	112.99	96.6743	4.1750	7.327
19.612	112.99	96.6747	4.1751	7.325
19.720	112.99	96.6744	4.1750	7.322
19.828	112.99	96.6735	4.1750	7.316
19.937	113.00	96.6727	4.1750	7.314
20.045	113.00	96.6725	4.1750	7.311
20.153	113.00	96.6722	4.1749	7.305
20.262	113.00	96.6716	4.1749	7.303
20.370	113.00	96.6712	4.1749	7.300
20.478	113.00	96.6705	4.1749	7.295
20.587	113.00	96.6701	4.1749	7.290
20.695	113.00	96.6694	4.1748	7.283
20.803	113.00	96.6691	4.1748	7.279
20.912	113.00	96.6693	4.1748	7.274
21.020	113.00	96.6689	4.1748	7.269
21.128	113.00	96.6686	4.1748	7.266
21.237	113.00	96.6675	4.1747	7.261
21.345	113.00	96.6664	4.1747	7.254
21.453	113.00	96.6662	4.1747	7.251
21.562	113.00	96.6660	4.1747	7.246
21.670	113.00	96.6651	4.1746	7.244
21.778	113.00	96.6646	4.1746	7.240
21.887	113.00	96.6644	4.1746	7.237
21.995	113.00	96.6639	4.1746	7.234
22.103	113.00	96.6637	4.1746	7.230
22.212	113.00	96.6633	4.1746	7.225
22.320	113.00	96.6631	4.1746	7.221
22.428	112.99	96.6625	4.1745	7.216
22.537	113.00	96.6626	4.1745	7.213
22.645	112.99	96.6620	4.1745	7.210
22.753	112.99	96.6609	4.1745	7.207
22.862	112.99	96.6610	4.1745	7.206
22.970	112.99	96.6607	4.1745	7.201
23.078	112.99	96.6605	4.1744	7.197
23.187	112.99	96.6600	4.1744	7.190
23.295	112.99	96.6596	4.1744	7.187
23.403	112.99	96.6594	4.1744	7.182
23.512	112.99	96.6593	4.1744	7.175
23.620	112.99	96.6588	4.1744	7.173
23.728	112.99	96.6585	4.1744	7.170
23.837	112.99	96.6582	4.1743	7.168
23.945	112.99	96.6576	4.1743	7.165
24.053	112.99	96.6574	4.1743	7.163
24.162	112.99	96.6571	4.1743	7.157
24.270	112.99	96.6568	4.1743	7.154
24.378	112.99	96.6567	4.1743	7.149
24.487	112.99	96.6564	4.1743	7.145
24.595	112.99	96.6562	4.1743	7.143
24.703	112.99	96.6572	4.1743	7.141
24.812	112.98	96.6831	4.1754	7.127
24.920	112.99	96.7608	4.1788	7.091
25.028	112.98	96.8040	4.1806	7.077
25.137	112.98	96.8296	4.1817	7.065
25.245	112.98	96.8447	4.1824	7.056
25.353	112.98	96.8534	4.1828	7.051
25.462	112.98	96.8585	4.1830	7.047
25.570	112.98	96.8613	4.1831	7.044
25.678	112.98	96.8628	4.1832	7.041
25.787	112.98	96.8637	4.1832	7.038
25.895	112.98	96.8641	4.1832	7.037
26.003	112.97	96.8644	4.1832	7.034
26.112	112.97	96.8642	4.1832	7.030
26.220	112.97	96.8636	4.1832	7.027
26.328	112.97	96.8632	4.1832	7.027
26.437	112.97	96.8630	4.1832	7.026
26.545	112.97	96.8628	4.1832	7.020
26.653	112.97	96.8624	4.1832	7.019
26.762	112.97	96.8619	4.1831	7.017
26.870	112.97	96.8615	4.1831	7.014
26.978	112.97	96.8613	4.1831	7.010
27.087	112.97	96.8613	4.1831	7.009
27.195	112.97	96.8607	4.1831	7.007
27.303	112.97	96.8609	4.1831	7.005
27.412	112.97	96.8606	4.1831	7.006
27.520	112.97	96.8601	4.1831	7.004
27.628	112.97	96.8596	4.1830	7.004
27.737	112.97	96.8595	4.1830	7.002
27.845	112.97	96.8591	4.1830	7.000
27.953	112.97	96.8590	4.1830	6.994
28.062	112.97	96.8585	4.1830	6.992
28.170	112.97	96.8580	4.1830	6.989
28.278	112.97	96.8576	4.1830	6.984
28.387	112.97	96.8575	4.1830	6.981
28.495	112.97	96.8571	4.1829	6.979
28.603	112.97	96.8571	4.1829	6.978
28.712	112.97	96.8567	4.1829	6.977
28.820	112.97	96.8564	4.1829	6.971
28.928	112.97	96.8564	4.1829	6.968
29.037	112.97	96.8560	4.1829	6.966
29.145	112.96	96.8555	4.1829	6.962
29.253	112.96	96.8550	4.1828	6.959
29.362	112.96	96.8549	4.1828	6.956
29.470	112.96	96.8544	4.1828	6.951
29.578	112.96	96.8540	4.1828	6.952
29.687	112.96	96.8539	4.1828	6.950
29.795	112.96	96.8538	4.1828	6.948
29.903	112.96	96.8536	4.1828	6.948
30.012	112.96	96.8534	4.1828	6.948
30.120	112.96	96.8527	4.1827	6.943
30.228	112.96	96.8523	4.1827	6.938
30.337	112.96	96.8523	4.1827	6.935
30.445	112.96	96.8520	4.1827	6.933
30.553	112.96	96.8518	4.1827	6.933
30.662	112.96	96.8515	4.1827	6.933
30.770	112.96	96.8514	4.1827	6.932
30.878	112.96	96.8513	4.1827	6.932
30.987	112.96	96.8513	4.1827	6.931
31.095	112.96	96.8509	4.1827	6.929
31.203	112.96	96.8505	4.1826	6.926
31.312	112.96	96.8502	4.1826	6.925
31.420	112.96	96.8502	4.1826	6.923
31.528	112.96	96.8498	4.1826	6.920
31.637	112.96	96.8495	4.1826	6.917
31.745	112.96	96.8491	4.1826	6.914
31.853	112.96	96.8486	4.1826	6.911
31.962	112.96	96.8481	4.1825	6.910
32.070	112.96	96.8476	4.1825	6.910
32.178	112.96	96.8474	4.1825	6.909
32.287	112.95	96.8472	4.1825	6.907
32.395	112.96	96.8467	4.1825	6.904
32.503	112.95	96.8467	4.1825	6.902
32.612	112.96	96.8468	4.1825	6.901
32.720	112.96	96.8464	4.1825	6.899
32.828	112.96	96.8461	4.1825	6.898
32.937	112.95	96.8461	4.1825	6.896
33.045	112.95	96.8461	4.1825	6.892
[...]
min	°C	%	mg	mW
152.670	944.67	1.1935	0.0515	39.677
152.712	945.07	1.1930	0.0515	39.727
152.753	945.44	1.1926	0.0515	39.936
152.795	945.78	1.1924	0.0515	40.229
152.837	946.09	1.1922	0.0515	40.514
152.878	946.37	1.1918	0.0515	40.784
152.920	946.61	1.1914	0.0515	41.044
152.962	946.82	1.1911	0.0514	41.301
153.003	947.00	1.1909	0.0514	41.539
153.045	947.14	1.1906	0.0514	41.753
153.087	947.27	1.1903	0.0514	41.958
153.128	947.37	1.1900	0.0514	42.170
153.170	947.45	1.1896	0.0514	42.393
153.212	947.51	1.1892	0.0514	42.621
153.253	947.56	1.1888	0.0513	42.858
153.295	947.60	1.1885	0.0513	43.116
153.337	947.63	1.1882	0.0513	43.399
153.378	947.65	1.1878	0.0513	43.700
153.420	947.67	1.1874	0.0513	44.012
153.462	947.69	1.1869	0.0513	44.331
153.503	947.70	1.1864	0.0512	44.654
153.545	947.71	1.1860	0.0512	44.994
153.587	947.73	1.1858	0.0512	45.344
153.628	947.74	1.1855	0.0512	45.702
153.670	947.75	1.1853	0.0512	46.077
153.712	947.77	1.1850	0.0512	46.452
153.753	947.78	1.1847	0.0512	46.834
153.795	947.80	1.1842	0.0511	47.227
153.837	947.82	1.1839	0.0511	47.624
153.878	947.84	1.1836	0.0511	48.030
153.920	947.86	1.1831	0.0511	48.424
153.962	947.88	1.1827	0.0511	48.806
154.003	947.90	1.1825	0.0511	49.195
154.045	947.92	1.1823	0.0511	49.587
154.087	947.95	1.1821	0.0511	49.969
154.128	947.97	1.1819	0.0510	50.341
154.170	947.99	1.1818	0.0510	50.709
154.212	948.02	1.1817	0.0510	51.072
154.253	948.04	1.1815	0.0510	51.431
154.295	948.06	1.1813	0.0510	51.776
154.337	948.09	1.1812	0.0510	52.109
154.378	948.11	1.1811	0.0510	52.452
154.420	948.13	1.1810	0.0510	52.794
154.462	948.15	1.1807	0.0510	53.126
154.503	948.17	1.1803	0.0510	53.442
154.545	948.20	1.1800	0.0510	53.749
154.587	948.22	1.1798	0.0510	54.052
154.628	948.24	1.1796	0.0509	54.345
154.670	948.25	1.1794	0.0509	54.638
154.712	948.27	1.1792	0.0509	54.931
154.753	948.29	1.1790	0.0509	55.209
154.795	948.31	1.1787	0.0509	55.482
154.837	948.33	1.1784	0.0509	55.739
154.878	948.34	1.1782	0.0509	55.989
154.920	948.36	1.1779	0.0509	56.248
154.962	948.37	1.1776	0.0509	56.494
155.003	948.39	1.1772	0.0508	56.734
155.045	948.41	1.1768	0.0508	56.967
155.087	948.42	1.1765	0.0508	57.188
155.128	948.43	1.1763	0.0508	57.415
155.170	948.45	1.1760	0.0508	57.653
155.212	948.46	1.1758	0.0508	57.886
155.253	948.47	1.1755	0.0508	58.095
155.295	948.48	1.1751	0.0507	58.297
155.337	948.50	1.1747	0.0507	58.506
155.378	948.51	1.1746	0.0507	58.715
155.420	948.52	1.1744	0.0507	58.918
155.462	948.53	1.1741	0.0507	59.110
155.503	948.54	1.1738	0.0507	59.298
155.545	948.55	1.1736	0.0507	59.480
155.587	948.56	1.1734	0.0507	59.659
155.628	948.57	1.1730	0.0507	59.834
155.670	948.58	1.1727	0.0506	59.998
155.712	948.59	1.1724	0.0506	60.161
155.753	948.60	1.1721	0.0506	60.312
155.795	948.61	1.1717	0.0506	60.463
155.837	948.62	1.1712	0.0506	60.630
155.878	948.63	1.1709	0.0506	60.786
155.920	948.64	1.1706	0.0506	60.943
155.962	948.65	1.1702	0.0505	61.117
156.003	948.65	1.1699	0.0505	61.282
156.045	948.66	1.1695	0.0505	61.439
156.087	948.67	1.1691	0.0505	61.591
156.128	948.68	1.1688	0.0505	61.733
156.170	948.68	1.1685	0.0505	61.854
156.212	948.69	1.1682	0.0505	61.956
156.253	948.70	1.1678	0.0504	62.070
156.295	948.71	1.1674	0.0504	62.195
156.337	948.71	1.1670	0.0504	62.321
156.378	948.72	1.1667	0.0504	62.448
156.420	948.73	1.1663	0.0504	62.566
156.462	948.74	1.1659	0.0504	62.675
156.503	948.74	1.1655	0.0503	62.784
156.545	948.75	1.1652	0.0503	62.886
156.587	948.75	1.1651	0.0503	62.986
156.628	948.76	1.1649	0.0503	63.100
156.670	948.77	1.1646	0.0503	63.218
156.712	948.77	1.1644	0.0503	63.324
156.753	948.78	1.1640	0.0503	63.432
156.795	948.78	1.1636	0.0503	63.538
156.837	948.79	1.1632	0.0502	63.628
156.878	948.79	1.1628	0.0502	63.717
156.920	948.80	1.1624	0.0502	63.807
156.962	948.80	1.1621	0.0502	63.889
157.003	948.81	1.1618	0.0502	63.971
157.045	948.81	1.1614	0.0502	64.050
157.087	948.82	1.1611	0.0501	64.125
157.128	948.82	1.1607	0.0501	64.206
157.170	948.83	1.1603	0.0501	64.283
157.212	948.83	1.1599	0.0501	64.368
157.253	948.83	1.1593	0.0501	64.470
157.295	948.84	1.1589	0.0500	64.563
157.337	948.84	1.1584	0.0500	64.648
157.378	948.85	1.1581	0.0500	64.726
157.420	948.85	1.1579	0.0500	64.801
157.462	948.86	1.1576	0.0500	64.874
157.503	948.86	1.1572	0.0500	64.936
157.545	948.86	1.1569	0.0500	64.994
157.587	948.87	1.1565	0.0499	65.048
157.628	948.87	1.1560	0.0499	65.104
157.670	948.88	1.1556	0.0499	65.170
157.712	948.88	1.1554	0.0499	65.255
157.753	948.88	1.1551	0.0499	65.337
157.795	948.89	1.1547	0.0499	65.395
157.837	948.89	1.1543	0.0499	65.445
157.878	948.89	1.1539	0.0498	65.494
157.920	948.90	1.1534	0.0498	65.540
157.962	948.90	1.1531	0.0498	65.608
158.003	948.90	1.1528	0.0498	65.699
158.045	948.90	1.1525	0.0498	65.788
158.087	948.91	1.1522	0.0498	65.863
158.128	948.91	1.1519	0.0497	65.928
158.170	948.91	1.1517	0.0497	65.984
158.212	948.92	1.1515	0.0497	66.037
158.253	948.92	1.1512	0.0497	66.091
158.295	948.92	1.1509	0.0497	66.130
158.337	948.93	1.1507	0.0497	66.165
158.378	948.93	1.1506	0.0497	66.206
158.420	948.93	1.1504	0.0497	66.251
158.462	948.93	1.1500	0.0497	66.301
158.503	948.94	1.1496	0.0496	66.349
158.545	948.94	1.1492	0.0496	66.395
158.587	948.94	1.1488	0.0496	66.449
158.628	948.94	1.1484	0.0496	66.495
158.670	948.95	1.1482	0.0496	66.529
158.712	948.95	1.1480	0.0496	66.574
158.753	948.95	1.1479	0.0496	66.630
158.795	948.95	1.1477	0.0496	66.681
158.837	948.96	1.1473	0.0495	66.724
158.878	948.96	1.1469	0.0495	66.765
158.920	948.96	1.1467	0.0495	66.813
158.962	948.96	1.1463	0.0495	66.866
159.003	948.96	1.1458	0.0495	66.913
159.045	948.96	1.1454	0.0495	66.959
159.087	948.97	1.1451	0.0495	67.015
159.128	948.97	1.1449	0.0494	67.070
159.170	948.97	1.1445	0.0494	67.117
159.212	948.97	1.1441	0.0494	67.153
159.253	948.98	1.1437	0.0494	67.179
159.295	948.98	1.1433	0.0494	67.206
159.337	948.98	1.1430	0.0494	67.232
159.378	948.98	1.1427	0.0493	67.261
159.420	948.98	1.1424	0.0493	67.294
159.462	948.98	1.1422	0.0493	67.327
159.503	948.99	1.1420	0.0493	67.356
159.545	948.99	1.1417	0.0493	67.395
159.587	948.99	1.1413	0.0493	67.445
159.628	948.99	1.1410	0.0493	67.488
159.670	948.99	1.1407	0.0493	67.523
159.712	948.99	1.1403	0.0492	67.556
159.753	949.00	1.1400	0.0492	67.595
159.795	949.00	1.1396	0.0492	67.633
159.837	949.00	1.1393	0.0492	67.660
159.878	949.00	1.1390	0.0492	67.696
159.920	949.00	1.1387	0.0492	67.744
159.962	949.00	1.1383	0.0492	67.790
160.003	949.00	1.1378	0.0491	67.830
160.045	949.01	1.1372	0.0491	67.861
160.087	949.01	1.1367	0.0491	67.888
160.128	949.01	1.1363	0.0491	67.920
160.170	949.01	1.1359	0.0491	67.953
160.212	949.01	1.1355	0.0490	67.983
160.253	949.01	1.1352	0.0490	68.012
160.295	949.02	1.1348	0.0490	68.039
160.337	949.02	1.1344	0.0490	68.072
160.378	949.02	1.1340	0.0490	68.114
160.420	949.02	1.1336	0.0490	68.153
160.462	949.02	1.1333	0.0489	68.186
160.503	949.02	1.1330	0.0489	68.210
160.545	949.02	1.1328	0.0489	68.235
160.587	949.02	1.1325	0.0489	68.264
160.628	949.02	1.1320	0.0489	68.296
160.670	949.03	1.1316	0.0489	68.327
160.712	949.03	1.1311	0.0488	68.351
160.753	949.03	1.1307	0.0488	68.369
160.795	949.03	1.1304	0.0488	68.388
160.837	949.03	1.1301	0.0488	68.411
160.878	949.03	1.1297	0.0488	68.433
160.920	949.03	1.1295	0.0488	68.453
160.962	949.03	1.1292	0.0488	68.475
161.003	949.03	1.1289	0.0488	68.500
161.045	949.04	1.1285	0.0487	68.527
161.087	949.04	1.1281	0.0487	68.552
161.128	949.04	1.1277	0.0487	68.579
161.170	949.04	1.1275	0.0487	68.610
161.212	949.04	1.1272	0.0487	68.639
161.253	949.04	1.1269	0.0487	68.673
161.295	949.04	1.1266	0.0487	68.713
161.337	949.04	1.1263	0.0486	68.741
161.378	949.04	1.1260	0.0486	68.764
161.420	949.04	1.1258	0.0486	68.788
161.462	949.04	1.1255	0.0486	68.813
161.503	949.05	1.1251	0.0486	68.839
161.545	949.05	1.1247	0.0486	68.868
161.587	949.05	1.1244	0.0486	68.891
161.628	949.05	1.1241	0.0485	68.915
161.670	949.05	1.1239	0.0485	68.944
161.712	949.05	1.1235	0.0485	68.969
161.753	949.05	1.1230	0.0485	68.990
161.795	949.05	1.1226	0.0485	69.015
161.837	949.05	1.1223	0.0485	69.040
161.878	949.06	1.1219	0.0485	69.055
161.920	949.06	1.1215	0.0484	69.072
161.962	949.06	1.1212	0.0484	69.098
162.003	949.06	1.1209	0.0484	69.122
162.045	949.06	1.1206	0.0484	69.148
162.087	949.06	1.1203	0.0484	69.176
162.128	949.06	1.1199	0.0484	69.197
162.170	949.06	1.1195	0.0483	69.216
162.212	949.06	1.1191	0.0483	69.239
162.253	949.06	1.1187	0.0483	69.260
162.295	949.06	1.1184	0.0483	69.273
162.337	949.06	1.1181	0.0483	69.285
162.378	949.06	1.1178	0.0483	69.298
162.420	949.07	1.1175	0.0483	69.318
162.462	949.07	1.1171	0.0482	69.340
162.503	949.07	1.1168	0.0482	69.359
162.545	949.07	1.1163	0.0482	69.377
162.587	949.07	1.1159	0.0482	69.394
162.628		1.1154	0.0482
162.662		1.1150	0.0482