File: PSO Kinetics/data/softwood-20Kmin_2.txt
Filename	softwood-20Kmin_2
Instrument name	0650-0369 (192.168.1.2)
Operator	ca527
rundate	1/9/2023
Sample name	softwood-20Kmin_2
proceduresegments	Select Gas: Gas 1 ; Ramp 10.00 °C/min to 110.00 °C; Isothermal 30.0 min; Ramp 20.00 °C/min to 900.00 °C; Isothermal 30.0 min; Select Gas: Gas 2 ; Ramp 10.00 °C/min to 950.00 °C; Isothermal 10.0 min; Data Off ; Equilibrate 30.00 °C
[step]
Ramp 10.00 °C/min to 110.00 °C
Time	Temperature	Weight	Weight	Heat Flow
min	°C	%	mg	mW
0.003		100.0133	4.0831
0.037		100.1653	4.0893
0.070	22.13	100.3330	4.0962	-28.350
0.103	22.28	100.3928	4.0986	-28.188
0.137	22.44	100.4129	4.0995	-28.035
0.170	22.60	100.4264	4.1000	-27.892
0.203	22.75	100.4369	4.1004	-27.755
0.237	22.89	100.4448	4.1008	-27.622
0.270	23.04	100.4504	4.1010	-27.493
0.303	23.19	100.4536	4.1011	-27.366
0.337	23.33	100.4542	4.1011	-27.242
0.370	23.47	100.4526	4.1011	-27.125
0.403	23.61	100.4491	4.1009	-27.014
0.437	23.76	100.4437	4.1007	-26.901
0.470	23.90	100.4366	4.1004	-26.793
0.503	24.05	100.4277	4.1001	-26.697
0.537	24.20	100.4170	4.0996	-26.611
0.570	24.35	100.4044	4.0991	-26.524
0.603	24.52	100.3903	4.0985	-26.444
0.637	24.68	100.3751	4.0979	-26.374
0.670	24.85	100.3590	4.0973	-26.315
0.703	25.03	100.3422	4.0966	-26.262
0.737	25.21	100.3251	4.0959	-26.211
0.770	25.40	100.3083	4.0952	-26.163
0.803	25.60	100.2917	4.0945	-26.117
0.837	25.80	100.2756	4.0938	-26.076
0.870	26.01	100.2602	4.0932	-26.034
0.903	26.22	100.2457	4.0926	-25.991
0.937	26.45	100.2320	4.0921	-25.944
0.970	26.67	100.2192	4.0915	-25.889
1.003	26.91	100.2073	4.0911	-25.822
1.037	27.16	100.1965	4.0906	-25.748
1.070	27.41	100.1865	4.0902	-25.672
1.103	27.66	100.1771	4.0898	-25.584
1.137	27.93	100.1682	4.0895	-25.484
1.170	28.20	100.1596	4.0891	-25.369
1.203	28.48	100.1512	4.0888	-25.246
1.237	28.76	100.1430	4.0884	-25.112
1.270	29.05	100.1349	4.0881	-24.969
1.303	29.35	100.1267	4.0878	-24.815
1.337	29.65	100.1183	4.0874	-24.649
1.370	29.96	100.1095	4.0871	-24.472
1.403	30.27	100.1005	4.0867	-24.288
1.437	30.59	100.0911	4.0863	-24.095
1.470	30.91	100.0816	4.0859	-23.896
1.503	31.24	100.0716	4.0855	-23.688
1.537	31.57	100.0610	4.0851	-23.473
1.570	31.91	100.0500	4.0846	-23.253
1.603	32.25	100.0388	4.0842	-23.026
1.637	32.59	100.0272	4.0837	-22.790
1.670	32.94	100.0154	4.0832	-22.548
1.703	33.29	100.0032	4.0827	-22.306
1.737	33.64	99.9906	4.0822	-22.056
1.770	34.00	99.9776	4.0817	-21.802
1.803	34.36	99.9644	4.0811	-21.542
1.837	34.72	99.9509	4.0806	-21.280
1.870	35.08	99.9370	4.0800	-21.014
1.903	35.45	99.9229	4.0794	-20.749
1.937	35.82	99.9083	4.0789	-20.484
1.970	36.18	99.8934	4.0782	-20.218
2.003	36.55	99.8781	4.0776	-19.946
2.037	36.93	99.8627	4.0770	-19.671
2.070	37.30	99.8472	4.0764	-19.394
2.103	37.67	99.8314	4.0757	-19.116
2.137	38.04	99.8151	4.0750	-18.834
2.170	38.42	99.7984	4.0744	-18.551
2.203	38.79	99.7815	4.0737	-18.271
2.237	39.17	99.7645	4.0730	-17.992
2.270	39.54	99.7473	4.0723	-17.708
2.303	39.92	99.7299	4.0716	-17.427
2.337	40.30	99.7121	4.0708	-17.145
2.370	40.67	99.6942	4.0701	-16.866
2.403	41.05	99.6760	4.0694	-16.585
2.437	41.42	99.6573	4.0686	-16.305
2.470	41.79	99.6384	4.0678	-16.023
2.503	42.17	99.6194	4.0671	-15.743
2.537	42.54	99.6001	4.0663	-15.467
2.570	42.92	99.5805	4.0655	-15.190
2.603	43.29	99.5605	4.0647	-14.913
2.637	43.66	99.5405	4.0638	-14.637
2.670	44.03	99.5202	4.0630	-14.367
2.703	44.40	99.4994	4.0622	-14.095
2.737	44.77	99.4784	4.0613	-13.828
2.770	45.13	99.4571	4.0604	-13.560
2.803	45.50	99.4355	4.0595	-13.293
2.837	45.87	99.4136	4.0587	-13.028
2.870	46.23	99.3914	4.0577	-12.767
2.903	46.60	99.3689	4.0568	-12.507
2.937	46.96	99.3460	4.0559	-12.248
2.970	47.32	99.3229	4.0550	-11.993
3.003	47.68	99.2996	4.0540	-11.738
3.037	48.04	99.2760	4.0530	-11.486
3.070	48.40	99.2521	4.0521	-11.237
3.103	48.76	99.2279	4.0511	-10.991
3.137	49.12	99.2035	4.0501	-10.744
3.170	49.47	99.1790	4.0491	-10.501
3.203	49.83	99.1541	4.0481	-10.262
3.237	50.18	99.1290	4.0470	-10.025
3.270	50.54	99.1039	4.0460	-9.789
3.303	50.89	99.0786	4.0450	-9.554
3.337	51.24	99.0530	4.0439	-9.323
3.370	51.59	99.0273	4.0429	-9.096
3.403	51.94	99.0016	4.0418	-8.871
3.437	52.29	98.9757	4.0408	-8.646
3.470	52.64	98.9498	4.0397	-8.423
3.503	52.99	98.9237	4.0387	-8.203
3.537	53.34	98.8976	4.0376	-7.985
3.570	53.68	98.8717	4.0365	-7.770
3.603	54.03	98.8458	4.0355	-7.559
3.637	54.37	98.8198	4.0344	-7.350
3.670	54.72	98.7938	4.0333	-7.142
3.703	55.06	98.7677	4.0323	-6.933
3.737	55.41	98.7416	4.0312	-6.731
3.770	55.75	98.7156	4.0302	-6.530
3.803	56.09	98.6895	4.0291	-6.329
3.837	56.44	98.6635	4.0280	-6.131
3.870	56.78	98.6375	4.0270	-5.932
3.903	57.12	98.6116	4.0259	-5.737
3.937	57.46	98.5857	4.0249	-5.541
3.970	57.81	98.5600	4.0238	-5.348
4.003	58.15	98.5344	4.0228	-5.159
4.037	58.49	98.5090	4.0217	-4.972
4.070	58.83	98.4837	4.0207	-4.788
4.103	59.17	98.4586	4.0197	-4.606
4.137	59.51	98.4334	4.0186	-4.422
4.170	59.85	98.4082	4.0176	-4.243
4.203	60.19	98.3832	4.0166	-4.064
4.237	60.53	98.3584	4.0156	-3.888
4.270	60.87	98.3338	4.0146	-3.712
4.303	61.21	98.3095	4.0136	-3.537
4.337	61.55	98.2853	4.0126	-3.362
4.370	61.89	98.2614	4.0116	-3.191
4.403	62.23	98.2376	4.0106	-3.021
4.437	62.57	98.2141	4.0097	-2.852
4.470	62.91	98.1907	4.0087	-2.684
4.503	63.25	98.1676	4.0078	-2.520
4.537	63.59	98.1447	4.0068	-2.357
4.570	63.93	98.1219	4.0059	-2.195
4.603	64.27	98.0994	4.0050	-2.033
4.637	64.61	98.0770	4.0041	-1.873
4.670	64.95	98.0548	4.0032	-1.715
4.703	65.29	98.0330	4.0023	-1.556
4.737	65.63	98.0115	4.0014	-1.400
4.770	65.97	97.9904	4.0005	-1.247
4.803	66.31	97.9695	3.9997	-1.095
4.837	66.65	97.9489	3.9989	-0.945
4.870	66.99	97.9283	3.9980	-0.795
4.903	67.33	97.9080	3.9972	-0.643
4.937	67.67	97.8881	3.9964	-0.493
4.970	68.02	97.8686	3.9956	-0.344
5.003	68.36	97.8493	3.9948	-0.198
5.037	68.70	97.8304	3.9940	-0.057
5.070	69.04	97.8119	3.9933	0.081
5.103	69.38	97.7935	3.9925	0.218
5.137	69.72	97.7753	3.9918	0.361
5.170	70.07	97.7574	3.9910	0.502
5.203	70.41	97.7399	3.9903	0.641
5.237	70.75	97.7229	3.9896	0.774
5.270	71.09	97.7060	3.9889	0.906
5.303	71.44	97.6894	3.9883	1.044
5.337	71.78	97.6731	3.9876	1.181
5.370	72.12	97.6570	3.9869	1.311
5.403	72.47	97.6412	3.9863	1.438
5.437	72.81	97.6258	3.9857	1.567
5.470	73.15	97.6107	3.9850	1.696
5.503	73.50	97.5958	3.9844	1.818
5.537	73.84	97.5812	3.9838	1.941
5.570	74.19	97.5669	3.9833	2.063
5.603	74.53	97.5530	3.9827	2.184
5.637	74.88	97.5394	3.9821	2.306
5.670	75.22	97.5261	3.9816	2.425
5.703	75.57	97.5130	3.9811	2.540
5.737	75.91	97.5002	3.9805	2.657
5.770	76.26	97.4877	3.9800	2.773
5.803	76.60	97.4755	3.9795	2.889
5.837	76.95	97.4636	3.9790	3.003
5.870	77.29	97.4519	3.9786	3.114
5.903	77.64	97.4404	3.9781	3.223
5.937	77.98	97.4291	3.9776	3.328
5.970	78.33	97.4183	3.9772	3.433
6.003	78.67	97.4078	3.9768	3.538
6.037	79.02	97.3974	3.9763	3.645
6.070	79.36	97.3872	3.9759	3.747
6.103	79.71	97.3773	3.9755	3.846
6.137	80.06	97.3677	3.9751	3.944
6.170	80.40	97.3584	3.9747	4.041
6.203	80.75	97.3492	3.9744	4.136
6.237	81.09	97.3404	3.9740	4.234
6.270	81.44	97.3318	3.9737	4.332
6.303	81.79	97.3233	3.9733	4.424
6.337	82.13	97.3150	3.9730	4.514
6.370	82.48	97.3069	3.9726	4.609
6.403	82.82	97.2991	3.9723	4.704
6.437	83.17	97.2916	3.9720	4.791
6.470	83.52	97.2843	3.9717	4.875
6.503	83.86	97.2773	3.9714	4.960
6.537	84.21	97.2704	3.9712	5.047
6.570	84.56	97.2637	3.9709	5.131
6.603	84.90	97.2572	3.9706	5.216
6.637	85.25	97.2508	3.9704	5.300
6.670	85.59	97.2445	3.9701	5.378
6.703	85.94	97.2383	3.9698	5.453
6.737	86.29	97.2324	3.9696	5.528
6.770	86.63	97.2267	3.9694	5.605
6.803	86.98	97.2212	3.9691	5.682
6.837	87.32	97.2159	3.9689	5.756
6.870	87.67	97.2107	3.9687	5.832
6.903	88.01	97.2056	3.9685	5.904
6.937	88.36	97.2006	3.9683	5.974
6.970	88.71	97.1957	3.9681	6.044
7.003	89.05	97.1910	3.9679	6.112
7.037	89.40	97.1865	3.9677	6.177
7.070	89.74	97.1823	3.9676	6.246
7.103	90.09	97.1783	3.9674	6.311
7.137	90.44	97.1745	3.9672	6.374
7.170	90.78	97.1707	3.9671	6.432
7.203	91.13	97.1671	3.9669	6.494
7.237	91.47	97.1635	3.9668	6.552
7.270	91.82	97.1602	3.9667	6.606
7.303	92.16	97.1570	3.9665	6.661
7.337	92.51	97.1539	3.9664	6.718
7.370	92.85	97.1509	3.9663	6.773
7.403	93.20	97.1480	3.9662	6.825
7.437	93.54	97.1453	3.9660	6.874
7.470	93.89	97.1427	3.9659	6.923
7.503	94.23	97.1402	3.9658	6.972
7.537	94.58	97.1376	3.9657	7.019
7.570	94.92	97.1351	3.9656	7.068
7.603	95.27	97.1328	3.9655	7.116
7.637	95.61	97.1308	3.9655	7.155
7.670	95.95	97.1288	3.9654	7.193
7.703	96.30	97.1269	3.9653	7.232
7.737	96.64	97.1250	3.9652	7.275
7.770	96.99	97.1232	3.9651	7.313
7.803	97.33	97.1213	3.9651	7.351
7.837	97.67	97.1195	3.9650	7.389
7.870	98.02	97.1178	3.9649	7.431
7.903	98.36	97.1161	3.9649	7.466
7.937	98.70	97.1144	3.9648	7.500
7.970	99.05	97.1127	3.9647	7.528
8.003	99.39	97.1111	3.9647	7.557
8.037	99.73	97.1095	3.9646	7.583
8.070	100.08	97.1081	3.9645	7.612
8.103	100.42	97.1068	3.9645	7.640
8.137	100.76	97.1056	3.9644	7.670
8.170	101.11	97.1045	3.9644	7.696
8.203	101.45	97.1033	3.9643	7.722
8.237	101.79	97.1021	3.9643	7.744
8.270	102.14	97.1008	3.9642	7.767
8.303	102.48	97.0996	3.9642	7.790
8.337	102.82	97.0985	3.9641	7.809
8.370	103.17	97.0975	3.9641	7.831
8.403	103.51	97.0966	3.9641	7.851
8.437	103.85	97.0957	3.9640	7.870
8.470	104.19	97.0950	3.9640	7.886
8.503	104.54	97.0941	3.9640	7.902
8.537	104.88	97.0925	3.9639	7.916
8.570	105.22	97.0910	3.9638	7.931
8.603	105.56	97.0893	3.9638	7.949
8.637	105.91	97.0881	3.9637	7.963
8.670	106.25	97.0873	3.9637	7.973
8.695	106.51	97.0870	3.9637	7.980

[step]
Isothermal 30.0 min
Time	Temperature	Weight	Weight	Heat Flow
min	°C	%	mg	mW
8.703	106.59	97.0869	3.9637	7.983
8.812	107.70	97.0860	3.9636	8.022
8.920	108.77	97.0843	3.9636	8.117
9.028	109.77	97.0823	3.9635	8.299
9.137	110.68	97.0792	3.9634	8.549
9.245	111.47	97.0760	3.9632	8.858
9.353	112.14	97.0727	3.9631	9.214
9.462	112.68	97.0687	3.9629	9.584
9.570	113.09	97.0651	3.9628	9.988
9.678	113.36	97.0604	3.9626	10.377
9.787	113.52	97.0534	3.9623	10.732
9.895	113.58	97.0469	3.9620	11.033
10.003	113.56	97.0433	3.9619	11.277
10.112	113.47	97.0399	3.9617	11.477
10.220	113.33	97.0360	3.9616	11.601
10.328	113.17	97.0331	3.9615	11.656
10.437	113.00	97.0305	3.9614	11.670
10.545	112.83	97.0281	3.9613	11.657
10.653	112.66	97.0263	3.9612	11.611
10.762	112.50	97.0242	3.9611	11.526
10.870	112.36	97.0224	3.9610	11.432
10.978	112.23	97.0205	3.9610	11.329
11.087	112.13	97.0195	3.9609	11.233
11.195	112.05	97.0185	3.9609	11.122
11.303	111.99	97.0173	3.9608	11.025
11.412	111.96	97.0165	3.9608	10.932
11.520	111.95	97.0156	3.9608	10.846
11.628	111.96	97.0138	3.9607	10.771
11.737	111.98	97.0126	3.9606	10.700
11.845	112.02	97.0121	3.9606	10.652
11.953	112.08	97.0113	3.9606	10.610
12.062	112.14	97.0107	3.9606	10.577
12.170	112.21	97.0099	3.9605	10.548
12.278	112.29	97.0089	3.9605	10.529
12.387	112.37	97.0080	3.9604	10.512
12.495	112.45	97.0069	3.9604	10.506
12.603	112.53	97.0063	3.9604	10.505
12.712	112.60	97.0064	3.9604	10.507
12.820	112.68	97.0060	3.9604	10.516
12.928	112.74	97.0054	3.9603	10.531
13.037	112.80	97.0046	3.9603	10.544
13.145	112.86	97.0037	3.9603	10.557
13.253	112.91	97.0026	3.9602	10.573
13.362	112.95	97.0017	3.9602	10.597
13.470	112.99	97.0010	3.9602	10.620
13.578	113.02	97.0000	3.9601	10.640
13.687	113.04	96.9992	3.9601	10.656
13.795	113.06	96.9984	3.9600	10.671
13.903	113.07	96.9977	3.9600	10.681
14.012	113.09	96.9968	3.9600	10.689
14.120	113.09	96.9959	3.9599	10.696
14.228	113.10	96.9944	3.9599	10.702
14.337	113.10	96.9876	3.9596	10.706
14.445	113.10	96.9861	3.9595	10.710
14.553	113.10	96.9848	3.9595	10.710
14.662	113.10	96.9838	3.9595	10.708
14.770	113.10	96.9829	3.9594	10.703
14.878	113.11	96.9824	3.9594	10.697
14.987	113.11	96.9820	3.9594	10.690
15.095	113.11	96.9815	3.9594	10.681
15.203	113.11	96.9806	3.9593	10.678
15.312	113.11	96.9798	3.9593	10.670
15.420	113.12	96.9792	3.9593	10.659
15.528	113.12	96.9789	3.9593	10.649
15.637	113.13	96.9787	3.9592	10.642
15.745	113.13	96.9779	3.9592	10.633
15.853	113.14	96.9772	3.9592	10.624
15.962	113.15	96.9765	3.9592	10.615
16.070	113.15	96.9760	3.9591	10.608
16.178	113.16	96.9756	3.9591	10.603
16.287	113.17	96.9751	3.9591	10.597
16.395	113.18	96.9746	3.9591	10.592
16.503	113.18	96.9740	3.9591	10.589
16.612	113.19	96.9731	3.9590	10.581
16.720	113.20	96.9727	3.9590	10.573
16.828	113.21	96.9725	3.9590	10.571
16.937	113.21	96.9719	3.9590	10.567
17.045	113.22	96.9711	3.9589	10.564
17.153	113.22	96.9706	3.9589	10.564
17.262	113.23	96.9701	3.9589	10.563
17.370	113.23	96.9695	3.9589	10.560
17.478	113.24	96.9688	3.9588	10.556
17.587	113.24	96.9685	3.9588	10.551
17.695	113.24	96.9681	3.9588	10.551
17.803	113.25	96.9678	3.9588	10.548
17.912	113.25	96.9674	3.9588	10.544
18.020	113.25	96.9669	3.9588	10.538
18.128	113.25	96.9664	3.9587	10.535
18.237	113.25	96.9654	3.9587	10.531
18.345	113.25	96.9648	3.9587	10.525
18.453	113.25	96.9645	3.9587	10.518
18.562	113.25	96.9639	3.9586	10.516
18.670	113.25	96.9633	3.9586	10.511
18.778	113.25	96.9625	3.9586	10.504
18.887	113.25	96.9619	3.9586	10.501
18.995	113.26	96.9619	3.9586	10.495
19.103	113.26	96.9616	3.9585	10.492
19.212	113.26	96.9610	3.9585	10.486
19.320	113.26	96.9605	3.9585	10.479
19.428	113.26	96.9599	3.9585	10.474
19.537	113.26	96.9593	3.9585	10.470
19.645	113.26	96.9589	3.9584	10.467
19.753	113.26	96.9582	3.9584	10.464
19.862	113.26	96.9576	3.9584	10.461
19.970	113.26	96.9569	3.9584	10.456
20.078	113.26	96.9569	3.9584	10.450
20.187	113.26	96.9562	3.9583	10.445
20.295	113.26	96.9559	3.9583	10.442
20.403	113.26	96.9559	3.9583	10.436
20.512	113.26	96.9555	3.9583	10.428
20.620	113.26	96.9552	3.9583	10.419
20.728	113.26	96.9549	3.9583	10.415
20.837	113.26	96.9547	3.9583	10.411
20.945	113.26	96.9543	3.9583	10.405
21.053	113.26	96.9539	3.9582	10.401
21.162	113.26	96.9533	3.9582	10.397
21.270	113.26	96.9530	3.9582	10.391
21.378	113.26	96.9526	3.9582	10.387
21.487	113.26	96.9525	3.9582	10.380
21.595	113.26	96.9522	3.9582	10.374
21.703	113.26	96.9513	3.9581	10.368
21.812	113.26	96.9508	3.9581	10.365
21.920	113.26	96.9504	3.9581	10.360
22.028	113.26	96.9498	3.9581	10.353
22.137	113.26	96.9496	3.9581	10.349
22.245	113.26	96.9494	3.9581	10.343
22.353	113.26	96.9492	3.9580	10.337
22.462	113.26	96.9489	3.9580	10.331
22.570	113.26	96.9487	3.9580	10.327
22.678	113.26	96.9482	3.9580	10.323
22.787	113.26	96.9480	3.9580	10.318
22.895	113.25	96.9477	3.9580	10.308
23.003	113.25	96.9475	3.9580	10.302
23.112	113.25	96.9471	3.9580	10.297
23.220	113.25	96.9470	3.9580	10.294
23.328	113.25	96.9467	3.9579	10.289
23.437	113.25	96.9462	3.9579	10.285
23.545	113.25	96.9463	3.9579	10.280
23.653	113.25	96.9457	3.9579	10.275
23.762	113.25	96.9455	3.9579	10.267
23.870	113.25	96.9449	3.9579	10.260
23.978	113.25	96.9446	3.9579	10.254
24.087	113.25	96.9445	3.9579	10.249
24.195	113.25	96.9443	3.9578	10.241
24.303	113.25	96.9439	3.9578	10.237
24.412	113.25	96.9437	3.9578	10.230
24.520	113.24	96.9429	3.9578	10.229
24.628	113.25	96.9422	3.9578	10.226
24.737	113.25	96.9417	3.9577	10.219
24.845	113.24	96.9416	3.9577	10.209
24.953	113.24	96.9416	3.9577	10.203
25.062	113.24	96.9416	3.9577	10.200
25.170	113.24	96.9412	3.9577	10.198
25.278	113.24	96.9405	3.9577	10.195
25.387	113.24	96.9400	3.9577	10.187
25.495	113.24	96.9394	3.9576	10.183
25.603	113.24	96.9391	3.9576	10.180
25.712	113.24	96.9385	3.9576	10.175
25.820	113.24	96.9381	3.9576	10.169
25.928	113.24	96.9383	3.9576	10.162
26.037	113.24	96.9382	3.9576	10.159
26.145	113.24	96.9383	3.9576	10.154
26.253	113.24	96.9383	3.9576	10.148
26.362	113.24	96.9380	3.9576	10.143
26.470	113.24	96.9380	3.9576	10.139
26.578	113.23	96.9374	3.9576	10.136
26.687	113.23	96.9372	3.9576	10.130
26.795	113.23	96.9368	3.9575	10.123
26.903	113.23	96.9364	3.9575	10.118
27.012	113.23	96.9365	3.9575	10.113
27.120	113.23	96.9359	3.9575	10.108
27.228	113.23	96.9353	3.9575	10.104
27.337	113.23	96.9349	3.9575	10.100
27.445	113.23	96.9349	3.9575	10.097
27.553	113.23	96.9345	3.9574	10.091
27.662	113.23	96.9346	3.9574	10.086
27.770	113.23	96.9341	3.9574	10.082
27.878	113.23	96.9338	3.9574	10.077
27.987	113.23	96.9335	3.9574	10.071
28.095	113.23	96.9331	3.9574	10.067
28.203	113.23	96.9326	3.9574	10.063
28.312	113.23	96.9326	3.9574	10.059
28.420	113.22	96.9324	3.9574	10.055
28.528	113.22	96.9325	3.9574	10.052
28.637	113.22	96.9323	3.9574	10.050
28.745	113.22	96.9316	3.9573	10.044
28.853	113.22	96.9311	3.9573	10.039
28.962	113.22	96.9306	3.9573	10.032
29.070	113.22	96.9303	3.9573	10.027
29.178	113.22	96.9298	3.9573	10.023
29.287	113.22	96.9294	3.9572	10.018
29.395	113.22	96.9298	3.9572	10.014
29.503	113.22	96.9296	3.9572	10.009
29.612	113.22	96.9293	3.9572	10.005
29.720	113.22	96.9293	3.9572	10.001
29.828	113.22	96.9289	3.9572	9.996
29.937	113.22	96.9284	3.9572	9.993
30.045	113.22	96.9283	3.9572	9.989
30.153	113.22	96.9281	3.9572	9.985
30.262	113.22	96.9279	3.9572	9.980
30.370	113.21	96.9275	3.9572	9.975
30.478	113.21	96.9273	3.9571	9.970
30.587	113.21	96.9274	3.9572	9.966
30.695	113.21	96.9277	3.9572	9.963
30.803	113.21	96.9274	3.9572	9.958
30.912	113.21	96.9270	3.9571	9.955
31.020	113.21	96.9267	3.9571	9.951
31.128	113.21	96.9264	3.9571	9.948
31.237	113.21	96.9259	3.9571	9.942
31.345	113.21	96.9257	3.9571	9.937
31.453	113.21	96.9251	3.9571	9.932
31.562	113.21	96.9250	3.9571	9.926
31.670	113.21	96.9248	3.9570	9.921
31.778	113.21	96.9246	3.9570	9.919
31.887	113.21	96.9244	3.9570	9.917
31.995	113.21	96.9242	3.9570	9.914
32.103	113.21	96.9239	3.9570	9.909
32.212	113.21	96.9233	3.9570	9.906
[...]
113.745	948.10	-1.1014	-0.0450	67.258
113.787	948.16	-1.1018	-0.0450	68.092
113.828	948.22	-1.1022	-0.0450	68.908
113.870	948.26	-1.1026	-0.0450	69.700
113.912	948.30	-1.1028	-0.0450	70.475
113.953	948.33	-1.1031	-0.0450	71.224
113.995	948.35	-1.1035	-0.0451	71.935
114.037	948.37	-1.1038	-0.0451	72.621
114.078	948.39	-1.1040	-0.0451	73.285
114.120	948.41	-1.1043	-0.0451	73.920
114.162	948.43	-1.1047	-0.0451	74.539
114.203	948.45	-1.1050	-0.0451	75.129
114.245	948.47	-1.1053	-0.0451	75.694
114.287	948.49	-1.1055	-0.0451	76.248
114.328	948.51	-1.1056	-0.0451	76.784
114.370	948.53	-1.1057	-0.0451	77.306
114.412	948.55	-1.1059	-0.0451	77.811
114.453	948.57	-1.1059	-0.0452	78.293
114.495	948.60	-1.1059	-0.0452	78.753
114.537	948.62	-1.1060	-0.0452	79.205
114.578	948.65	-1.1062	-0.0452	79.648
114.620	948.67	-1.1064	-0.0452	80.074
114.662	948.70	-1.1066	-0.0452	80.495
114.703	948.72	-1.1068	-0.0452	80.909
114.745	948.74	-1.1071	-0.0452	81.313
114.787	948.77	-1.1073	-0.0452	81.714
114.828	948.79	-1.1073	-0.0452	82.104
114.870	948.82	-1.1076	-0.0452	82.487
114.912	948.84	-1.1079	-0.0452	82.865
114.953	948.86	-1.1082	-0.0452	83.237
114.995	948.88	-1.1084	-0.0453	83.600
115.037	948.91	-1.1085	-0.0453	83.953
115.078	948.93	-1.1087	-0.0453	84.303
115.120	948.95	-1.1090	-0.0453	84.638
115.162	948.97	-1.1092	-0.0453	84.958
115.203	948.99	-1.1094	-0.0453	85.272
115.245	949.01	-1.1095	-0.0453	85.584
115.287	949.03	-1.1096	-0.0453	85.894
115.328	949.05	-1.1099	-0.0453	86.191
115.370	949.06	-1.1103	-0.0453	86.472
115.412	949.08	-1.1106	-0.0453	86.746
115.453	949.10	-1.1109	-0.0454	87.019
115.495	949.11	-1.1111	-0.0454	87.292
115.537	949.13	-1.1113	-0.0454	87.560
115.578	949.14	-1.1115	-0.0454	87.813
115.620	949.16	-1.1116	-0.0454	88.068
115.662	949.17	-1.1119	-0.0454	88.325
115.703	949.19	-1.1122	-0.0454	88.572
115.745	949.20	-1.1124	-0.0454	88.800
115.787	949.21	-1.1124	-0.0454	89.017
115.828	949.23	-1.1124	-0.0454	89.229
115.870	949.24	-1.1127	-0.0454	89.443
115.912	949.25	-1.1129	-0.0454	89.670
115.953	949.26	-1.1132	-0.0454	89.874
115.995	949.27	-1.1134	-0.0455	90.061
116.037	949.29	-1.1137	-0.0455	90.252
116.078	949.30	-1.1139	-0.0455	90.445
116.120	949.31	-1.1141	-0.0455	90.633
116.162	949.32	-1.1143	-0.0455	90.817
116.203	949.33	-1.1145	-0.0455	90.994
116.245	949.34	-1.1148	-0.0455	91.166
116.287	949.35	-1.1151	-0.0455	91.333
116.328	949.36	-1.1155	-0.0455	91.493
116.370	949.37	-1.1159	-0.0456	91.661
116.412	949.38	-1.1161	-0.0456	91.823
116.453	949.38	-1.1163	-0.0456	91.971
116.495	949.39	-1.1165	-0.0456	92.118
116.537	949.40	-1.1168	-0.0456	92.266
116.578	949.41	-1.1172	-0.0456	92.403
116.620	949.42	-1.1176	-0.0456	92.544
116.662	949.42	-1.1177	-0.0456	92.682
116.703	949.43	-1.1178	-0.0456	92.812
116.745	949.44	-1.1180	-0.0456	92.938
116.787	949.45	-1.1182	-0.0457	93.056
116.828	949.45	-1.1184	-0.0457	93.172
116.870	949.46	-1.1186	-0.0457	93.300
116.912	949.47	-1.1188	-0.0457	93.422
116.953	949.47	-1.1189	-0.0457	93.523
116.995	949.48	-1.1191	-0.0457	93.638
117.037	949.49	-1.1193	-0.0457	93.757
117.078	949.49	-1.1196	-0.0457	93.866
117.120	949.50	-1.1199	-0.0457	93.974
117.162	949.50	-1.1202	-0.0457	94.071
117.203	949.51	-1.1206	-0.0457	94.162
117.245	949.52	-1.1209	-0.0458	94.266
117.287	949.52	-1.1213	-0.0458	94.370
117.328	949.53	-1.1217	-0.0458	94.459
117.370	949.53	-1.1221	-0.0458	94.543
117.412	949.54	-1.1225	-0.0458	94.636
117.453	949.54	-1.1228	-0.0458	94.729
117.495	949.55	-1.1232	-0.0459	94.816
117.537	949.55	-1.1236	-0.0459	94.899
117.578	949.56	-1.1240	-0.0459	94.970
117.620	949.56	-1.1244	-0.0459	95.027
117.662	949.56	-1.1246	-0.0459	95.094
117.703	949.57	-1.1249	-0.0459	95.168
117.745	949.57	-1.1252	-0.0459	95.239
117.787	949.58	-1.1255	-0.0460	95.312
117.828	949.58	-1.1259	-0.0460	95.385
117.870	949.59	-1.1262	-0.0460	95.453
117.912	949.59	-1.1266	-0.0460	95.508
117.953	949.59	-1.1269	-0.0460	95.565
117.995	949.60	-1.1273	-0.0460	95.627
118.037	949.60	-1.1276	-0.0460	95.684
118.078	949.60	-1.1279	-0.0460	95.744
118.120	949.61	-1.1284	-0.0461	95.807
118.162	949.61	-1.1288	-0.0461	95.860
118.203	949.61	-1.1293	-0.0461	95.916
118.245	949.62	-1.1296	-0.0461	95.977
118.287	949.62	-1.1298	-0.0461	96.028
118.328	949.62	-1.1299	-0.0461	96.079
118.370	949.63	-1.1302	-0.0461	96.140
118.412	949.63	-1.1303	-0.0461	96.196
118.453	949.63	-1.1304	-0.0462	96.250
118.495	949.64	-1.1305	-0.0462	96.307
118.537	949.64	-1.1306	-0.0462	96.358
118.578	949.64	-1.1307	-0.0462	96.398
118.620	949.64	-1.1309	-0.0462	96.434
118.662	949.65	-1.1312	-0.0462	96.466
118.703	949.65	-1.1315	-0.0462	96.500
118.745	949.65	-1.1318	-0.0462	96.540
118.787	949.66	-1.1321	-0.0462	96.590
118.828	949.66	-1.1325	-0.0462	96.635
118.870	949.66	-1.1329	-0.0463	96.675
118.912	949.66	-1.1331	-0.0463	96.721
118.953	949.66	-1.1333	-0.0463	96.756
118.995	949.67	-1.1336	-0.0463	96.784
119.037	949.67	-1.1339	-0.0463	96.814
119.078	949.67	-1.1342	-0.0463	96.846
119.120	949.67	-1.1347	-0.0463	96.879
119.162	949.67	-1.1351	-0.0463	96.913
119.203	949.68	-1.1354	-0.0464	96.951
119.245	949.68	-1.1358	-0.0464	96.987
119.287	949.68	-1.1361	-0.0464	97.022
119.328	949.68	-1.1364	-0.0464	97.067
119.370	949.68	-1.1368	-0.0464	97.107
119.412	949.69	-1.1370	-0.0464	97.136
119.453	949.69	-1.1372	-0.0464	97.161
119.495	949.69	-1.1375	-0.0464	97.188
119.537	949.69	-1.1378	-0.0465	97.226
119.578	949.69	-1.1382	-0.0465	97.260
119.620	949.70	-1.1387	-0.0465	97.285
119.662	949.70	-1.1391	-0.0465	97.312
119.703	949.70	-1.1395	-0.0465	97.336
119.745	949.70	-1.1397	-0.0465	97.360
119.787	949.70	-1.1399	-0.0465	97.382
119.828	949.70	-1.1400	-0.0465	97.406
119.870	949.71	-1.1403	-0.0466	97.428
119.912	949.71	-1.1406	-0.0466	97.446
119.953	949.71	-1.1410	-0.0466	97.466
119.995	949.71	-1.1413	-0.0466	97.490
120.037	949.71	-1.1417	-0.0466	97.516
120.078	949.71	-1.1422	-0.0466	97.538
120.120	949.71	-1.1426	-0.0466	97.562
120.162	949.72	-1.1430	-0.0467	97.591
120.203	949.72	-1.1433	-0.0467	97.616
120.245	949.72	-1.1437	-0.0467	97.637
120.287	949.72	-1.1439	-0.0467	97.658
120.328	949.72	-1.1441	-0.0467	97.680
120.370	949.72	-1.1443	-0.0467	97.702
120.412	949.72	-1.1447	-0.0467	97.719
120.453	949.72	-1.1450	-0.0467	97.732
120.495	949.72	-1.1453	-0.0468	97.747
120.537	949.73	-1.1458	-0.0468	97.764
120.578	949.73	-1.1462	-0.0468	97.782
120.620	949.73	-1.1466	-0.0468	97.803
120.662	949.73	-1.1469	-0.0468	97.832
120.703	949.73	-1.1474	-0.0468	97.861
120.745	949.73	-1.1478	-0.0469	97.888
120.787	949.73	-1.1482	-0.0469	97.916
120.828	949.73	-1.1486	-0.0469	97.939
120.870	949.73	-1.1489	-0.0469	97.956
120.912	949.74	-1.1492	-0.0469	97.969
120.953	949.74	-1.1494	-0.0469	97.982
120.995	949.74	-1.1496	-0.0469	97.998
121.037	949.74	-1.1499	-0.0469	98.015
121.078	949.74	-1.1501	-0.0470	98.036
121.120	949.74	-1.1505	-0.0470	98.059
121.162	949.74	-1.1511	-0.0470	98.077
121.203	949.74	-1.1516	-0.0470	98.090
121.245	949.74	-1.1520	-0.0470	98.101
121.287	949.74	-1.1524	-0.0470	98.114
121.328	949.75	-1.1525	-0.0471	98.127
121.370	949.75	-1.1527	-0.0471	98.142
121.412	949.75	-1.1529	-0.0471	98.155
121.453	949.75	-1.1533	-0.0471	98.168
121.495	949.75	-1.1536	-0.0471	98.182
121.537	949.75	-1.1539	-0.0471	98.195
121.578	949.75	-1.1542	-0.0471	98.209
121.620	949.75	-1.1545	-0.0471	98.225
121.662	949.75	-1.1549	-0.0472	98.240
121.703	949.75	-1.1553	-0.0472	98.253
121.745	949.75	-1.1557	-0.0472	98.265
121.787	949.75	-1.1560	-0.0472	98.278
121.828	949.75	-1.1561	-0.0472	98.294
121.870	949.76	-1.1562	-0.0472	98.311
121.912	949.76	-1.1563	-0.0472	98.327
121.953	949.76	-1.1565	-0.0472	98.340
121.995	949.76	-1.1566	-0.0472	98.350
122.037	949.76	-1.1568	-0.0472	98.364
122.078	949.76	-1.1569	-0.0472	98.380
122.120	949.76	-1.1571	-0.0472	98.397
122.162	949.76	-1.1574	-0.0473	98.415
122.203	949.76	-1.1577	-0.0473	98.432
122.245	949.76	-1.1581	-0.0473	98.450
122.287	949.76	-1.1584	-0.0473	98.465
122.328	949.76	-1.1586	-0.0473	98.474
122.370	949.76	-1.1589	-0.0473	98.480
122.412	949.76	-1.1593	-0.0473	98.489
122.453	949.76	-1.1596	-0.0473	98.498
122.495	949.76	-1.1599	-0.0474	98.507
122.537	949.77	-1.1602	-0.0474	98.518
122.578	949.77	-1.1604	-0.0474	98.529
122.620	949.76	-1.1606	-0.0474	98.536
122.662	949.77	-1.1610	-0.0474	98.542
122.703	949.77	-1.1613	-0.0474	98.552
122.745	949.77	-1.1614	-0.0474	98.564
122.787	949.77	-1.1616	-0.0474	98.574
122.828	949.77	-1.1619	-0.0474	98.586
122.870	949.77	-1.1622	-0.0474	98.602
122.912	949.77	-1.1625	-0.0475	98.613
122.953	949.77	-1.1629	-0.0475	98.622
122.995	949.77	-1.1634	-0.0475	98.637
123.037	949.77	-1.1637	-0.0475	98.652
123.078	949.77	-1.1641	-0.0475	98.663
123.120	949.77	-1.1646	-0.0475	98.674
123.162		-1.1651	-0.0476
123.195		-1.1654	-0.0476