File: PSO Kinetics/data/WF115_1.txt
Filename	WF115_1
Instrument name	0650-0369 (192.168.1.2)
Operator	ca527
rundate	11/24/2022
Sample name	WF115_1
proceduresegments	Select Gas: Gas 1 ; Ramp 10.00 °C/min to 110.00 °C; Isothermal 30.0 min; Ramp 10.00 °C/min to 900.00 °C; Isothermal 30.0 min; Select Gas: Gas 2 ; Ramp 10.00 °C/min to 950.00 °C; Isothermal 10.0 min; Data Off ; Equilibrate 30.00 °C
[step]
Ramp 10.00 °C/min to 110.00 °C
Time	Temperature	Weight	Weight	Heat Flow
min	°C	%	mg	mW
0.003		100.0083	4.3790
0.037		99.9982	4.3786
0.070	22.48	99.9146	4.3749	-25.328
0.103	22.55	99.7893	4.3694	-25.275
0.137	22.62	99.7529	4.3678	-25.241
0.170	22.70	99.7360	4.3671	-25.214
0.203	22.77	99.7188	4.3664	-25.192
0.237	22.84	99.7003	4.3655	-25.176
0.270	22.92	99.6799	4.3646	-25.164
0.303	22.99	99.6580	4.3637	-25.156
0.337	23.07	99.6342	4.3626	-25.150
0.370	23.16	99.6082	4.3615	-25.146
0.403	23.25	99.5797	4.3603	-25.148
0.437	23.34	99.5486	4.3589	-25.155
0.470	23.45	99.5155	4.3574	-25.169
0.503	23.56	99.4805	4.3559	-25.193
0.537	23.68	99.4439	4.3543	-25.226
0.570	23.81	99.4060	4.3527	-25.272
0.603	23.95	99.3671	4.3509	-25.320
0.637	24.09	99.3273	4.3492	-25.367
0.670	24.25	99.2869	4.3474	-25.415
0.703	24.41	99.2462	4.3457	-25.471
0.737	24.59	99.2055	4.3439	-25.526
0.770	24.77	99.1649	4.3421	-25.581
0.803	24.96	99.1248	4.3403	-25.637
0.837	25.16	99.0853	4.3386	-25.694
0.870	25.37	99.0465	4.3369	-25.750
0.903	25.59	99.0087	4.3353	-25.806
0.937	25.82	98.9719	4.3336	-25.852
0.970	26.05	98.9362	4.3321	-25.889
1.003	26.30	98.9016	4.3306	-25.915
1.037	26.55	98.8681	4.3291	-25.933
1.070	26.81	98.8355	4.3277	-25.943
1.103	27.08	98.8036	4.3263	-25.943
1.137	27.37	98.7721	4.3249	-25.925
1.170	27.65	98.7410	4.3235	-25.879
1.203	27.95	98.7100	4.3222	-25.803
1.237	28.25	98.6786	4.3208	-25.705
1.270	28.57	98.6468	4.3194	-25.599
1.303	28.88	98.6144	4.3180	-25.481
1.337	29.21	98.5814	4.3165	-25.346
1.370	29.54	98.5478	4.3151	-25.197
1.403	29.88	98.5135	4.3136	-25.032
1.437	30.22	98.4784	4.3120	-24.852
1.470	30.57	98.4426	4.3105	-24.667
1.503	30.92	98.4060	4.3089	-24.470
1.537	31.28	98.3686	4.3072	-24.264
1.570	31.64	98.3304	4.3056	-24.049
1.603	32.01	98.2912	4.3038	-23.826
1.637	32.37	98.2512	4.3021	-23.596
1.670	32.74	98.2105	4.3003	-23.360
1.703	33.12	98.1691	4.2985	-23.116
1.737	33.49	98.1269	4.2966	-22.866
1.770	33.87	98.0839	4.2948	-22.614
1.803	34.25	98.0402	4.2929	-22.359
1.837	34.64	97.9959	4.2909	-22.099
1.870	35.02	97.9509	4.2889	-21.837
1.903	35.40	97.9052	4.2869	-21.570
1.937	35.79	97.8588	4.2849	-21.303
1.970	36.18	97.8118	4.2828	-21.032
2.003	36.56	97.7638	4.2807	-20.763
2.037	36.95	97.7151	4.2786	-20.493
2.070	37.34	97.6657	4.2765	-20.221
2.103	37.73	97.6158	4.2743	-19.944
2.137	38.11	97.5652	4.2721	-19.667
2.170	38.50	97.5140	4.2698	-19.393
2.203	38.89	97.4622	4.2675	-19.114
2.237	39.28	97.4099	4.2653	-18.837
2.270	39.66	97.3570	4.2629	-18.558
2.303	40.05	97.3036	4.2606	-18.283
2.337	40.43	97.2498	4.2582	-18.005
2.370	40.82	97.1953	4.2559	-17.728
2.403	41.20	97.1403	4.2534	-17.451
2.437	41.58	97.0848	4.2510	-17.179
2.470	41.96	97.0287	4.2486	-16.908
2.503	42.34	96.9721	4.2461	-16.636
2.537	42.72	96.9150	4.2436	-16.364
2.570	43.09	96.8575	4.2411	-16.096
2.603	43.47	96.7995	4.2385	-15.831
2.637	43.84	96.7413	4.2360	-15.566
2.670	44.22	96.6826	4.2334	-15.303
2.703	44.59	96.6235	4.2308	-15.039
2.737	44.96	96.5641	4.2282	-14.774
2.770	45.33	96.5044	4.2256	-14.512
2.803	45.69	96.4445	4.2230	-14.253
2.837	46.06	96.3844	4.2203	-13.994
2.870	46.43	96.3242	4.2177	-13.740
2.903	46.79	96.2638	4.2151	-13.486
2.937	47.15	96.2033	4.2124	-13.235
2.970	47.51	96.1426	4.2098	-12.983
3.003	47.87	96.0816	4.2071	-12.733
3.037	48.23	96.0205	4.2044	-12.484
3.070	48.59	95.9594	4.2017	-12.238
3.103	48.94	95.8983	4.1991	-11.995
3.137	49.30	95.8372	4.1964	-11.754
3.170	49.65	95.7761	4.1937	-11.514
3.203	50.01	95.7151	4.1910	-11.276
3.237	50.36	95.6542	4.1884	-11.038
3.270	50.71	95.5935	4.1857	-10.803
3.303	51.06	95.5328	4.1831	-10.568
3.337	51.41	95.4723	4.1804	-10.333
3.370	51.76	95.4120	4.1778	-10.102
3.403	52.10	95.3518	4.1751	-9.872
3.437	52.45	95.2918	4.1725	-9.645
3.470	52.80	95.2322	4.1699	-9.416
3.503	53.14	95.1730	4.1673	-9.190
3.537	53.49	95.1140	4.1647	-8.962
3.570	53.83	95.0552	4.1621	-8.737
3.603	54.17	94.9965	4.1596	-8.513
3.637	54.52	94.9382	4.1570	-8.291
3.670	54.86	94.8805	4.1545	-8.070
3.703	55.20	94.8233	4.1520	-7.851
3.737	55.54	94.7666	4.1495	-7.634
3.770	55.88	94.7104	4.1470	-7.419
3.803	56.23	94.6546	4.1446	-7.200
3.837	56.57	94.5993	4.1422	-6.984
3.870	56.91	94.5445	4.1398	-6.772
3.903	57.25	94.4901	4.1374	-6.557
3.937	57.59	94.4363	4.1350	-6.345
3.970	57.93	94.3830	4.1327	-6.134
4.003	58.27	94.3304	4.1304	-5.922
4.037	58.61	94.2783	4.1281	-5.713
4.070	58.95	94.2268	4.1259	-5.507
4.103	59.29	94.1760	4.1236	-5.298
4.137	59.63	94.1259	4.1215	-5.091
4.170	59.97	94.0764	4.1193	-4.884
4.203	60.31	94.0275	4.1171	-4.679
4.237	60.66	93.9792	4.1150	-4.475
4.270	61.00	93.9315	4.1129	-4.272
4.303	61.34	93.8843	4.1109	-4.070
4.337	61.68	93.8377	4.1088	-3.870
4.370	62.02	93.7918	4.1068	-3.670
4.403	62.36	93.7465	4.1048	-3.472
4.437	62.70	93.7019	4.1029	-3.278
4.470	63.04	93.6580	4.1010	-3.080
4.503	63.39	93.6145	4.0991	-2.884
4.537	63.73	93.5716	4.0972	-2.694
4.570	64.07	93.5291	4.0953	-2.504
4.603	64.41	93.4872	4.0935	-2.313
4.637	64.75	93.4460	4.0917	-2.124
4.670	65.10	93.4054	4.0899	-1.937
4.703	65.44	93.3653	4.0882	-1.757
4.737	65.78	93.3259	4.0864	-1.576
4.770	66.13	93.2868	4.0847	-1.393
4.803	66.47	93.2482	4.0830	-1.210
4.837	66.81	93.2100	4.0814	-1.030
4.870	67.16	93.1724	4.0797	-0.856
4.903	67.50	93.1353	4.0781	-0.683
4.937	67.84	93.0988	4.0765	-0.511
4.970	68.19	93.0628	4.0749	-0.339
5.003	68.53	93.0274	4.0734	-0.170
5.037	68.88	92.9924	4.0718	0.001
5.070	69.22	92.9581	4.0703	0.171
5.103	69.57	92.9243	4.0688	0.339
5.137	69.91	92.8910	4.0674	0.503
5.170	70.25	92.8581	4.0659	0.665
5.203	70.60	92.8257	4.0645	0.828
5.237	70.95	92.7937	4.0631	0.995
5.270	71.29	92.7622	4.0617	1.155
5.303	71.64	92.7312	4.0604	1.312
5.337	71.98	92.7007	4.0591	1.471
5.370	72.33	92.6707	4.0577	1.626
5.403	72.68	92.6413	4.0565	1.778
5.437	73.02	92.6125	4.0552	1.930
5.470	73.37	92.5841	4.0539	2.082
5.503	73.72	92.5562	4.0527	2.230
5.537	74.06	92.5288	4.0515	2.376
5.570	74.41	92.5018	4.0503	2.521
5.603	74.76	92.4752	4.0492	2.664
5.637	75.10	92.4491	4.0480	2.802
5.670	75.45	92.4235	4.0469	2.943
5.703	75.80	92.3983	4.0458	3.085
5.737	76.15	92.3736	4.0447	3.221
5.770	76.49	92.3492	4.0437	3.354
5.803	76.84	92.3251	4.0426	3.488
5.837	77.19	92.3015	4.0416	3.620
5.870	77.53	92.2783	4.0406	3.749
5.903	77.88	92.2554	4.0396	3.878
5.937	78.23	92.2330	4.0386	4.004
5.970	78.57	92.2110	4.0376	4.129
6.003	78.92	92.1893	4.0367	4.253
6.037	79.27	92.1679	4.0357	4.373
6.070	79.61	92.1469	4.0348	4.492
6.103	79.96	92.1262	4.0339	4.611
6.137	80.31	92.1060	4.0330	4.727
6.170	80.66	92.0863	4.0321	4.842
6.203	81.00	92.0668	4.0313	4.957
6.237	81.35	92.0477	4.0305	5.068
6.270	81.70	92.0288	4.0296	5.179
6.303	82.04	92.0103	4.0288	5.288
6.337	82.39	91.9920	4.0280	5.391
6.370	82.74	91.9741	4.0272	5.493
6.403	83.08	91.9565	4.0265	5.600
6.437	83.43	91.9394	4.0257	5.706
6.470	83.78	91.9225	4.0250	5.805
6.503	84.12	91.9060	4.0243	5.901
6.537	84.47	91.8897	4.0235	5.994
6.570	84.82	91.8736	4.0228	6.089
6.603	85.16	91.8577	4.0221	6.184
6.637	85.51	91.8421	4.0215	6.277
6.670	85.85	91.8269	4.0208	6.367
6.703	86.20	91.8120	4.0201	6.458
6.737	86.55	91.7975	4.0195	6.546
6.770	86.89	91.7832	4.0189	6.633
6.803	87.24	91.7691	4.0183	6.719
6.837	87.59	91.7553	4.0177	6.801
6.870	87.93	91.7417	4.0171	6.881
6.903	88.28	91.7284	4.0165	6.959
6.937	88.62	91.7154	4.0159	7.034
6.970	88.97	91.7025	4.0153	7.111
7.003	89.31	91.6899	4.0148	7.189
7.037	89.66	91.6775	4.0142	7.263
7.070	90.00	91.6653	4.0137	7.334
7.103	90.35	91.6534	4.0132	7.405
7.137	90.70	91.6417	4.0127	7.472
7.170	91.04	91.6303	4.0122	7.539
7.203	91.39	91.6191	4.0117	7.607
7.237	91.73	91.6080	4.0112	7.673
7.270	92.08	91.5970	4.0107	7.734
7.303	92.42	91.5863	4.0103	7.790
7.337	92.76	91.5757	4.0098	7.852
7.370	93.11	91.5654	4.0093	7.914
7.403	93.45	91.5553	4.0089	7.974
7.437	93.80	91.5453	4.0085	8.030
7.470	94.14	91.5356	4.0080	8.086
7.503	94.49	91.5262	4.0076	8.137
7.537	94.83	91.5169	4.0072	8.187
7.570	95.17	91.5077	4.0068	8.235
7.603	95.52	91.4988	4.0064	8.284
7.637	95.86	91.4900	4.0060	8.334
7.670	96.21	91.4813	4.0057	8.382
7.703	96.55	91.4728	4.0053	8.426
7.737	96.89	91.4643	4.0049	8.467
7.770	97.24	91.4561	4.0046	8.510
7.803	97.58	91.4480	4.0042	8.554
7.837	97.92	91.4400	4.0038	8.598
7.870	98.27	91.4321	4.0035	8.637
7.903	98.61	91.4244	4.0032	8.673
7.937	98.95	91.4169	4.0028	8.706
7.970	99.30	91.4095	4.0025	8.740
8.003	99.64	91.4022	4.0022	8.778
8.037	99.98	91.3951	4.0019	8.812
8.070	100.33	91.3884	4.0016	8.847
8.103	100.67	91.3817	4.0013	8.879
8.137	101.01	91.3752	4.0010	8.908
8.170	101.35	91.3687	4.0007	8.934
8.203	101.70	91.3625	4.0005	8.961
8.237	102.04	91.3563	4.0002	8.990
8.270	102.38	91.3502	3.9999	9.014
8.303	102.72	91.3441	3.9997	9.034
8.337	103.07	91.3381	3.9994	9.056
8.370	103.41	91.3322	3.9991	9.080
8.403	103.75	91.3263	3.9989	9.104
8.437	104.09	91.3207	3.9986	9.125
8.470	104.44	91.3153	3.9984	9.145
8.503	104.78	91.3099	3.9982	9.165
8.537	105.12	91.3045	3.9979	9.185
8.570	105.47	91.2993	3.9977	9.205
8.603	105.81	91.2942	3.9975	9.222
8.637	106.15	91.2892	3.9972	9.239
8.670	106.49	91.2843	3.9970	9.254

[step]
Isothermal 30.0 min
Time	Temperature	Weight	Weight	Heat Flow
min	°C	%	mg	mW
8.678	106.58	91.2831	3.9970	9.257
8.787	107.69	91.2679	3.9963	9.299
8.895	108.76	91.2540	3.9957	9.394
9.003	109.76	91.2401	3.9951	9.560
9.112	110.67	91.2264	3.9945	9.788
9.220	111.46	91.2130	3.9939	10.074
9.328	112.12	91.1997	3.9933	10.395
9.437	112.66	91.1870	3.9928	10.732
9.545	113.06	91.1756	3.9923	11.078
9.653	113.33	91.1637	3.9918	11.414
9.762	113.48	91.1523	3.9913	11.708
9.870	113.54	91.1418	3.9908	11.948
9.978	113.50	91.1319	3.9904	12.137
10.087	113.41	91.1224	3.9899	12.260
10.195	113.27	91.1140	3.9896	12.322
10.303	113.12	91.1070	3.9893	12.332
10.412	112.95	91.1007	3.9890	12.306
10.520	112.78	91.0956	3.9888	12.232
10.628	112.61	91.0912	3.9886	12.134
10.737	112.46	91.0871	3.9884	12.027
10.845	112.32	91.0834	3.9882	11.912
10.953	112.20	91.0803	3.9881	11.794
11.062	112.10	91.0776	3.9880	11.683
11.170	112.03	91.0752	3.9879	11.577
11.278	111.98	91.0732	3.9878	11.476
11.387	111.95	91.0713	3.9877	11.388
11.495	111.94	91.0692	3.9876	11.306
11.603	111.95	91.0674	3.9875	11.238
11.712	111.99	91.0659	3.9875	11.178
11.820	112.03	91.0644	3.9874	11.130
11.928	112.09	91.0631	3.9873	11.092
12.037	112.16	91.0614	3.9873	11.064
12.145	112.23	91.0605	3.9872	11.047
12.253	112.31	91.0593	3.9872	11.032
12.362	112.39	91.0583	3.9871	11.025
12.470	112.47	91.0574	3.9871	11.023
12.578	112.55	91.0566	3.9871	11.026
12.687	112.63	91.0556	3.9870	11.034
12.795	112.70	91.0545	3.9870	11.044
12.903	112.77	91.0533	3.9869	11.059
13.012	112.83	91.0523	3.9869	11.073
13.120	112.89	91.0515	3.9868	11.091
13.228	112.93	91.0505	3.9868	11.108
13.337	112.97	91.0495	3.9868	11.125
13.445	113.01	91.0484	3.9867	11.142
13.553	113.04	91.0474	3.9867	11.154
13.662	113.06	91.0469	3.9866	11.165
13.770	113.08	91.0461	3.9866	11.172
13.878	113.09	91.0455	3.9866	11.176
13.987	113.10	91.0446	3.9865	11.178
14.095	113.11	91.0441	3.9865	11.176
14.203	113.12	91.0437	3.9865	11.175
14.312	113.12	91.0433	3.9865	11.173
14.420	113.12	91.0424	3.9864	11.169
14.528	113.12	91.0419	3.9864	11.165
14.637	113.12	91.0412	3.9864	11.158
14.745	113.13	91.0407	3.9864	11.145
14.853	113.13	91.0404	3.9864	11.136
14.962	113.13	91.0399	3.9863	11.127
15.070	113.13	91.0393	3.9863	11.116
15.178	113.13	91.0387	3.9863	11.104
15.287	113.14	91.0382	3.9863	11.092
15.395	113.14	91.0378	3.9862	11.079
15.503	113.15	91.0377	3.9862	11.066
15.612	113.15	91.0372	3.9862	11.058
15.720	113.16	91.0367	3.9862	11.046
15.828	113.17	91.0362	3.9862	11.032
15.937	113.17	91.0358	3.9861	11.023
16.045	113.18	91.0355	3.9861	11.009
16.153	113.19	91.0352	3.9861	11.002
16.262	113.20	91.0350	3.9861	10.997
16.370	113.21	91.0347	3.9861	10.989
16.478	113.22	91.0346	3.9861	10.980
16.587	113.22	91.0343	3.9861	10.970
16.695	113.23	91.0341	3.9861	10.966
16.803	113.24	91.0340	3.9861	10.962
16.912	113.24	91.0340	3.9861	10.958
17.020	113.25	91.0339	3.9861	10.950
17.128	113.25	91.0337	3.9861	10.940
17.237	113.26	91.0336	3.9861	10.929
17.345	113.26	91.0335	3.9861	10.920
17.453	113.26	91.0334	3.9860	10.914
17.562	113.27	91.0334	3.9860	10.907
17.670	113.27	91.0332	3.9860	10.901
17.778	113.27	91.0329	3.9860	10.896
17.887	113.27	91.0329	3.9860	10.888
17.995	113.28	91.0326	3.9860	10.879
18.103	113.28	91.0325	3.9860	10.870
18.212	113.28	91.0322	3.9860	10.861
18.320	113.28	91.0323	3.9860	10.852
18.428	113.28	91.0320	3.9860	10.842
18.537	113.28	91.0324	3.9860	10.834
18.645	113.28	91.0324	3.9860	10.827
18.753	113.28	91.0325	3.9860	10.816
18.862	113.28	91.0320	3.9860	10.812
18.970	113.28	91.0316	3.9860	10.806
19.078	113.28	91.0316	3.9860	10.799
19.187	113.28	91.0317	3.9860	10.790
19.295	113.28	91.0314	3.9860	10.785
19.403	113.28	91.0311	3.9859	10.780
19.512	113.28	91.0309	3.9859	10.772
19.620	113.28	91.0307	3.9859	10.766
19.728	113.28	91.0306	3.9859	10.757
19.837	113.28	91.0305	3.9859	10.749
19.945	113.28	91.0307	3.9859	10.743
20.053	113.28	91.0307	3.9859	10.736
20.162	113.28	91.0309	3.9859	10.729
20.270	113.28	91.0308	3.9859	10.717
20.378	113.29	91.0309	3.9859	10.710
20.487	113.28	91.0310	3.9859	10.702
20.595	113.28	91.0306	3.9859	10.695
20.703	113.29	91.0304	3.9859	10.689
20.812	113.29	91.0306	3.9859	10.681
20.920	113.28	91.0307	3.9859	10.673
21.028	113.28	91.0307	3.9859	10.664
21.137	113.28	91.0309	3.9859	10.656
21.245	113.28	91.0309	3.9859	10.648
21.353	113.28	91.0310	3.9859	10.640
21.462	113.28	91.0310	3.9859	10.631
21.570	113.28	91.0312	3.9859	10.623
21.678	113.28	91.0312	3.9859	10.614
21.787	113.28	91.0311	3.9859	10.607
21.895	113.28	91.0310	3.9859	10.601
22.003	113.28	91.0307	3.9859	10.593
22.112	113.28	91.0311	3.9859	10.587
22.220	113.28	91.0312	3.9859	10.574
22.328	113.28	91.0309	3.9859	10.564
22.437	113.28	91.0308	3.9859	10.553
22.545	113.28	91.0307	3.9859	10.548
22.653	113.27	91.0309	3.9859	10.541
22.762	113.27	91.0309	3.9859	10.537
22.870	113.27	91.0313	3.9860	10.531
22.978	113.27	91.0312	3.9859	10.526
23.087	113.27	91.0311	3.9859	10.519
23.195	113.27	91.0310	3.9859	10.513
23.303	113.27	91.0312	3.9859	10.506
23.412	113.27	91.0310	3.9859	10.501
23.520	113.27	91.0313	3.9860	10.489
23.628	113.27	91.0316	3.9860	10.478
23.737	113.27	91.0316	3.9860	10.473
23.845	113.27	91.0318	3.9860	10.465
23.953	113.27	91.0314	3.9860	10.459
24.062	113.27	91.0315	3.9860	10.452
24.170	113.26	91.0311	3.9859	10.447
24.278	113.27	91.0311	3.9859	10.441
24.387	113.26	91.0317	3.9860	10.433
24.495	113.26	91.0319	3.9860	10.426
24.603	113.26	91.0324	3.9860	10.417
24.712	113.26	91.0324	3.9860	10.406
24.820	113.26	91.0322	3.9860	10.401
24.928	113.26	91.0319	3.9860	10.394
25.037	113.26	91.0320	3.9860	10.385
25.145	113.26	91.0322	3.9860	10.380
25.253	113.26	91.0321	3.9860	10.373
25.362	113.26	91.0320	3.9860	10.366
25.470	113.26	91.0318	3.9860	10.359
25.578	113.26	91.0319	3.9860	10.352
25.687	113.25	91.0320	3.9860	10.345
25.795	113.25	91.0318	3.9860	10.340
25.903	113.25	91.0319	3.9860	10.336
26.012	113.25	91.0321	3.9860	10.329
26.120	113.25	91.0319	3.9860	10.324
26.228	113.25	91.0324	3.9860	10.316
26.337	113.25	91.0330	3.9860	10.313
26.445	113.25	91.0330	3.9860	10.306
26.553	113.25	91.0327	3.9860	10.301
26.662	113.25	91.0327	3.9860	10.295
26.770	113.25	91.0325	3.9860	10.288
26.878	113.25	91.0331	3.9860	10.280
26.987	113.25	91.0333	3.9860	10.273
27.095	113.25	91.0332	3.9860	10.266
27.203	113.24	91.0334	3.9860	10.257
27.312	113.24	91.0334	3.9860	10.249
27.420	113.24	91.0337	3.9861	10.244
27.528	113.24	91.0337	3.9861	10.240
27.637	113.24	91.0341	3.9861	10.234
27.745	113.24	91.0343	3.9861	10.226
27.853	113.24	91.0347	3.9861	10.221
27.962	113.24	91.0346	3.9861	10.219
28.070	113.24	91.0345	3.9861	10.212
28.178	113.24	91.0344	3.9861	10.204
28.287	113.24	91.0343	3.9861	10.200
28.395	113.24	91.0345	3.9861	10.191
28.503	113.24	91.0347	3.9861	10.187
28.612	113.24	91.0349	3.9861	10.181
28.720	113.24	91.0349	3.9861	10.177
28.828	113.24	91.0352	3.9861	10.170
28.937	113.23	91.0353	3.9861	10.166
29.045	113.23	91.0354	3.9861	10.163
29.153	113.23	91.0357	3.9861	10.155
29.262	113.23	91.0362	3.9862	10.145
29.370	113.23	91.0359	3.9862	10.140
29.478	113.23	91.0360	3.9862	10.133
29.587	113.23	91.0362	3.9862	10.128
29.695	113.23	91.0363	3.9862	10.122
29.803	113.23	91.0363	3.9862	10.118
29.912	113.23	91.0363	3.9862	10.113
30.020	113.23	91.0363	3.9862	10.109
30.128	113.23	91.0368	3.9862	10.103
30.237	113.23	91.0373	3.9862	10.096
30.345	113.23	91.0375	3.9862	10.090
30.453	113.23	91.0374	3.9862	10.084
30.562	113.23	91.0371	3.9862	10.078
30.670	113.23	91.0368	3.9862	10.074
30.778	113.22	91.0369	3.9862	10.068
30.887	113.22	91.0367	3.9862	10.063
30.995	113.22	91.0365	3.9862	10.058
31.103	113.22	91.0368	3.9862	10.053
31.212	113.22	91.0370	3.9862	10.048
31.320	113.22	91.0375	3.9862	10.040
31.428	113.22	91.0375	3.9862	10.036
31.537	113.22	91.0376	3.9862	10.028
31.645	113.22	91.0376	3.9862	10.019
31.753	113.22	91.0377	3.9862	10.015
31.862	113.22	91.0377	3.9862	10.014
31.970	113.22	91.0375	3.9862	10.011
32.078	113.22	91.0378	3.9862	10.006
32.187	113.22	91.0379	3.9862	9.999
32.295	113.22	91.0378	3.9862	9.992
32.403	113.21	91.0379	3.9862	9.990
32.512	113.21	91.0380	3.9862	9.988
[...]
152.853	946.57	3.1729	0.1389	62.834
152.895	946.86	3.1729	0.1389	63.677
152.937	947.12	3.1728	0.1389	64.574
152.978	947.34	3.1728	0.1389	65.513
153.020	947.54	3.1729	0.1389	66.482
153.062	947.71	3.1731	0.1389	67.457
153.103	947.85	3.1732	0.1389	68.428
153.145	947.96	3.1733	0.1389	69.394
153.187	948.06	3.1733	0.1390	70.352
153.228	948.14	3.1735	0.1390	71.305
153.270	948.21	3.1737	0.1390	72.239
153.312	948.27	3.1739	0.1390	73.146
153.353	948.31	3.1740	0.1390	74.035
153.395	948.35	3.1741	0.1390	74.885
153.437	948.38	3.1741	0.1390	75.699
153.478	948.41	3.1743	0.1390	76.482
153.520	948.43	3.1744	0.1390	77.239
153.562	948.46	3.1745	0.1390	77.967
153.603	948.48	3.1746	0.1390	78.660
153.645	948.50	3.1747	0.1390	79.335
153.687	948.52	3.1750	0.1390	79.983
153.728	948.54	3.1751	0.1390	80.607
153.770	948.56	3.1750	0.1390	81.213
153.812	948.58	3.1750	0.1390	81.798
153.853	948.60	3.1751	0.1390	82.364
153.895	948.63	3.1752	0.1390	82.910
153.937	948.65	3.1752	0.1390	83.441
153.978	948.67	3.1753	0.1390	83.949
154.020	948.70	3.1754	0.1390	84.449
154.062	948.72	3.1755	0.1390	84.939
154.103	948.75	3.1756	0.1390	85.408
154.145	948.77	3.1754	0.1390	85.876
154.187	948.80	3.1754	0.1390	86.334
154.228	948.83	3.1755	0.1390	86.782
154.270	948.85	3.1755	0.1390	87.219
154.312	948.88	3.1753	0.1390	87.647
154.353	948.90	3.1752	0.1390	88.068
154.395	948.93	3.1751	0.1390	88.480
154.437	948.95	3.1749	0.1390	88.881
154.478	948.98	3.1747	0.1390	89.274
154.520	949.00	3.1744	0.1390	89.655
154.562	949.02	3.1742	0.1390	90.024
154.603	949.05	3.1740	0.1390	90.397
154.645	949.07	3.1739	0.1390	90.762
154.687	949.09	3.1737	0.1390	91.114
154.728	949.11	3.1735	0.1390	91.462
154.770	949.13	3.1732	0.1389	91.797
154.812	949.15	3.1730	0.1389	92.124
154.853	949.17	3.1728	0.1389	92.442
154.895	949.18	3.1727	0.1389	92.755
154.937	949.20	3.1725	0.1389	93.063
154.978	949.22	3.1722	0.1389	93.355
155.020	949.24	3.1719	0.1389	93.643
155.062	949.25	3.1716	0.1389	93.932
155.103	949.27	3.1713	0.1389	94.208
155.145	949.29	3.1710	0.1388	94.471
155.187	949.30	3.1708	0.1388	94.732
155.228	949.31	3.1707	0.1388	94.993
155.270	949.33	3.1707	0.1388	95.245
155.312	949.34	3.1707	0.1388	95.489
155.353	949.36	3.1706	0.1388	95.724
155.395	949.37	3.1705	0.1388	95.935
155.437	949.38	3.1703	0.1388	96.154
155.478	949.39	3.1701	0.1388	96.385
155.520	949.40	3.1697	0.1388	96.609
155.562	949.42	3.1692	0.1388	96.828
155.603	949.43	3.1689	0.1388	97.031
155.645	949.44	3.1686	0.1387	97.226
155.687	949.45	3.1683	0.1387	97.417
155.728	949.46	3.1681	0.1387	97.611
155.770	949.47	3.1679	0.1387	97.805
155.812	949.48	3.1677	0.1387	97.989
155.853	949.49	3.1675	0.1387	98.157
155.895	949.50	3.1674	0.1387	98.316
155.937	949.51	3.1673	0.1387	98.485
155.978	949.52	3.1671	0.1387	98.657
156.020	949.53	3.1668	0.1387	98.811
156.062	949.54	3.1665	0.1386	98.958
156.103	949.54	3.1663	0.1386	99.107
156.145	949.55	3.1661	0.1386	99.253
156.187	949.56	3.1659	0.1386	99.395
156.228	949.57	3.1657	0.1386	99.528
156.270	949.58	3.1654	0.1386	99.656
156.312	949.58	3.1651	0.1386	99.792
156.353	949.59	3.1648	0.1386	99.933
156.395	949.60	3.1645	0.1386	100.067
156.437	949.61	3.1642	0.1385	100.198
156.478	949.61	3.1638	0.1385	100.317
156.520	949.62	3.1635	0.1385	100.427
156.562	949.63	3.1632	0.1385	100.533
156.603	949.63	3.1630	0.1385	100.641
156.645	949.64	3.1628	0.1385	100.751
156.687	949.65	3.1627	0.1385	100.851
156.728	949.65	3.1626	0.1385	100.948
156.770	949.66	3.1623	0.1385	101.045
156.812	949.66	3.1618	0.1384	101.145
156.853	949.67	3.1613	0.1384	101.239
156.895	949.68	3.1610	0.1384	101.328
156.937	949.68	3.1608	0.1384	101.433
156.978	949.69	3.1605	0.1384	101.539
157.020	949.69	3.1603	0.1384	101.627
157.062	949.70	3.1602	0.1384	101.715
157.103	949.70	3.1601	0.1384	101.807
157.145	949.71	3.1601	0.1384	101.895
157.187	949.71	3.1600	0.1384	101.981
157.228	949.72	3.1597	0.1384	102.056
157.270	949.72	3.1594	0.1383	102.126
157.312	949.72	3.1592	0.1383	102.209
157.353	949.73	3.1590	0.1383	102.286
157.395	949.73	3.1587	0.1383	102.357
157.437	949.74	3.1584	0.1383	102.425
157.478	949.74	3.1580	0.1383	102.498
157.520	949.75	3.1575	0.1383	102.570
157.562	949.75	3.1571	0.1382	102.635
157.603	949.75	3.1568	0.1382	102.698
157.645	949.76	3.1565	0.1382	102.763
157.687	949.76	3.1562	0.1382	102.829
157.728	949.76	3.1557	0.1382	102.881
157.770	949.77	3.1553	0.1382	102.935
157.812	949.77	3.1549	0.1381	102.995
157.853	949.78	3.1546	0.1381	103.059
157.895	949.78	3.1544	0.1381	103.119
157.937	949.78	3.1541	0.1381	103.170
157.978	949.79	3.1538	0.1381	103.216
158.020	949.79	3.1534	0.1381	103.259
158.062	949.79	3.1530	0.1381	103.302
158.103	949.80	3.1527	0.1380	103.356
158.145	949.80	3.1523	0.1380	103.408
158.187	949.80	3.1520	0.1380	103.450
158.228	949.80	3.1517	0.1380	103.495
158.270	949.81	3.1514	0.1380	103.542
158.312	949.81	3.1511	0.1380	103.587
158.353	949.81	3.1509	0.1380	103.636
158.395	949.81	3.1506	0.1380	103.681
158.437	949.82	3.1502	0.1379	103.723
158.478	949.82	3.1499	0.1379	103.767
158.520	949.82	3.1496	0.1379	103.811
158.562	949.82	3.1494	0.1379	103.849
158.603	949.83	3.1494	0.1379	103.884
158.645	949.83	3.1494	0.1379	103.924
158.687	949.83	3.1493	0.1379	103.962
158.728	949.83	3.1492	0.1379	103.995
158.770	949.84	3.1491	0.1379	104.037
158.812	949.84	3.1490	0.1379	104.081
158.853	949.84	3.1489	0.1379	104.120
158.895	949.84	3.1486	0.1379	104.153
158.937	949.84	3.1484	0.1379	104.184
158.978	949.85	3.1482	0.1378	104.217
159.020	949.85	3.1479	0.1378	104.249
159.062	949.85	3.1477	0.1378	104.280
159.103	949.85	3.1473	0.1378	104.318
159.145	949.85	3.1469	0.1378	104.363
159.187	949.86	3.1464	0.1378	104.404
159.228	949.86	3.1461	0.1378	104.439
159.270	949.86	3.1458	0.1377	104.468
159.312	949.86	3.1456	0.1377	104.491
159.353	949.86	3.1453	0.1377	104.511
159.395	949.86	3.1451	0.1377	104.543
159.437	949.87	3.1449	0.1377	104.583
159.478	949.87	3.1448	0.1377	104.616
159.520	949.87	3.1445	0.1377	104.643
159.562	949.87	3.1443	0.1377	104.667
159.603	949.87	3.1440	0.1377	104.694
159.645	949.87	3.1438	0.1377	104.724
159.687	949.88	3.1435	0.1376	104.754
159.728	949.88	3.1432	0.1376	104.782
159.770	949.88	3.1428	0.1376	104.814
159.812	949.88	3.1425	0.1376	104.842
159.853	949.88	3.1422	0.1376	104.862
159.895	949.88	3.1420	0.1376	104.891
159.937	949.89	3.1417	0.1376	104.921
159.978	949.89	3.1415	0.1376	104.948
160.020	949.89	3.1412	0.1375	104.973
160.062	949.89	3.1409	0.1375	104.996
160.103	949.89	3.1406	0.1375	105.019
160.145	949.89	3.1403	0.1375	105.038
160.187	949.89	3.1401	0.1375	105.053
160.228	949.90	3.1397	0.1375	105.071
160.270	949.90	3.1386	0.1374	105.093
160.312	949.90	3.1356	0.1373	105.115
160.353	949.90	3.1317	0.1371	105.139
160.395	949.90	3.1285	0.1370	105.166
160.437	949.90	3.1260	0.1369	105.192
160.478	949.90	3.1245	0.1368	105.212
160.520	949.90	3.1236	0.1368	105.226
160.562	949.90	3.1229	0.1367	105.240
160.603	949.91	3.1226	0.1367	105.258
160.645	949.91	3.1226	0.1367	105.281
160.687	949.91	3.1226	0.1367	105.299
160.728	949.91	3.1228	0.1367	105.315
160.770	949.91	3.1230	0.1367	105.329
160.812	949.91	3.1232	0.1368	105.344
160.853	949.91	3.1234	0.1368	105.363
160.895	949.91	3.1237	0.1368	105.382
160.937	949.91	3.1241	0.1368	105.397
160.978	949.91	3.1244	0.1368	105.410
161.020	949.91	3.1248	0.1368	105.423
161.062	949.92	3.1252	0.1368	105.437
161.103	949.92	3.1256	0.1369	105.458
161.145	949.92	3.1259	0.1369	105.482
161.187	949.92	3.1262	0.1369	105.503
161.228	949.92	3.1265	0.1369	105.520
161.270	949.92	3.1267	0.1369	105.539
161.312	949.92	3.1268	0.1369	105.564
161.353	949.92	3.1270	0.1369	105.588
161.395	949.92	3.1271	0.1369	105.609
161.437	949.92	3.1272	0.1369	105.629
161.478	949.92	3.1273	0.1369	105.647
161.520	949.92	3.1272	0.1369	105.663
161.562	949.92	3.1271	0.1369	105.681
161.603	949.93	3.1270	0.1369	105.699
161.645	949.93	3.1269	0.1369	105.714
161.687	949.93	3.1268	0.1369	105.726
161.728	949.93	3.1268	0.1369	105.739
161.770	949.93	3.1266	0.1369	105.754
161.812	949.93	3.1264	0.1369	105.773
161.853	949.93	3.1262	0.1369	105.793
161.895	949.93	3.1259	0.1369	105.811
161.937	949.93	3.1256	0.1369	105.825
161.978	949.93	3.1254	0.1369	105.835
162.020	949.93	3.1252	0.1368	105.850
162.062	949.93	3.1250	0.1368	105.867
162.103	949.93	3.1248	0.1368	105.883
162.145	949.93	3.1245	0.1368	105.897
162.187	949.94	3.1241	0.1368	105.912
162.228	949.94	3.1238	0.1368	105.927
162.270	949.94	3.1235	0.1368	105.940
162.312	949.94	3.1230	0.1367	105.955
162.353	949.94	3.1227	0.1367	105.972
162.395	949.94	3.1224	0.1367	105.990
162.437	949.94	3.1221	0.1367	106.008
162.478	949.94	3.1219	0.1367	106.026
162.520	949.94	3.1216	0.1367	106.041
162.562	949.94	3.1212	0.1367	106.055
162.603	949.94	3.1209	0.1367	106.069
162.645		3.1207	0.1366
162.678		3.1206	0.1366