File: PSO Kinetics/data/WF115_2.txt
Filename	WF115_2
Instrument name	0650-0369 (192.168.1.2)
Operator	ca527
rundate	11/24/2022
Sample name	WF115_2
proceduresegments	Select Gas: Gas 1 ; Ramp 10.00 °C/min to 110.00 °C; Isothermal 30.0 min; Ramp 10.00 °C/min to 900.00 °C; Isothermal 30.0 min; Select Gas: Gas 2 ; Ramp 10.00 °C/min to 950.00 °C; Isothermal 10.0 min; Data Off ; Equilibrate 30.00 °C
[step]
Ramp 10.00 °C/min to 110.00 °C
Time	Temperature	Weight	Weight	Heat Flow
min	°C	%	mg	mW
0.003		100.0110	5.8893
0.037		100.1105	5.8952
0.070	22.32	100.2092	5.9010	-25.843
0.103	22.47	100.2523	5.9035	-25.795
0.137	22.61	100.2601	5.9040	-25.760
0.170	22.75	100.2640	5.9042	-25.726
0.203	22.89	100.2650	5.9043	-25.691
0.237	23.03	100.2635	5.9042	-25.659
0.270	23.16	100.2596	5.9039	-25.635
0.303	23.29	100.2535	5.9036	-25.616
0.337	23.43	100.2452	5.9031	-25.600
0.370	23.55	100.2346	5.9025	-25.586
0.403	23.69	100.2222	5.9017	-25.567
0.437	23.82	100.2079	5.9009	-25.544
0.470	23.95	100.1918	5.8999	-25.525
0.503	24.09	100.1738	5.8989	-25.514
0.537	24.23	100.1539	5.8977	-25.507
0.570	24.38	100.1322	5.8964	-25.502
0.603	24.53	100.1090	5.8951	-25.501
0.637	24.69	100.0845	5.8936	-25.502
0.670	24.85	100.0592	5.8921	-25.505
0.703	25.02	100.0333	5.8906	-25.511
0.737	25.20	100.0071	5.8891	-25.518
0.770	25.38	99.9808	5.8875	-25.527
0.803	25.57	99.9545	5.8860	-25.538
0.837	25.77	99.9285	5.8844	-25.550
0.870	25.97	99.9028	5.8829	-25.560
0.903	26.18	99.8774	5.8814	-25.567
0.937	26.40	99.8524	5.8800	-25.572
0.970	26.62	99.8275	5.8785	-25.570
1.003	26.86	99.8030	5.8770	-25.549
1.037	27.10	99.7787	5.8756	-25.509
1.070	27.34	99.7546	5.8742	-25.455
1.103	27.60	99.7305	5.8728	-25.393
1.137	27.86	99.7063	5.8714	-25.320
1.170	28.13	99.6820	5.8699	-25.235
1.203	28.40	99.6575	5.8685	-25.140
1.237	28.68	99.6328	5.8670	-25.037
1.270	28.97	99.6077	5.8656	-24.921
1.303	29.26	99.5823	5.8641	-24.797
1.337	29.56	99.5566	5.8625	-24.668
1.370	29.87	99.5305	5.8610	-24.533
1.403	30.18	99.5041	5.8594	-24.394
1.437	30.49	99.4773	5.8579	-24.246
1.470	30.81	99.4501	5.8563	-24.089
1.503	31.14	99.4225	5.8546	-23.929
1.537	31.46	99.3944	5.8530	-23.760
1.570	31.80	99.3660	5.8513	-23.582
1.603	32.13	99.3371	5.8496	-23.402
1.637	32.47	99.3079	5.8479	-23.219
1.670	32.82	99.2782	5.8461	-23.029
1.703	33.16	99.2482	5.8444	-22.839
1.737	33.51	99.2176	5.8426	-22.647
1.770	33.86	99.1866	5.8408	-22.449
1.803	34.22	99.1553	5.8389	-22.248
1.837	34.58	99.1235	5.8370	-22.043
1.870	34.94	99.0913	5.8351	-21.830
1.903	35.30	99.0587	5.8332	-21.616
1.937	35.66	99.0258	5.8313	-21.400
1.970	36.03	98.9924	5.8293	-21.182
2.003	36.39	98.9586	5.8273	-20.963
2.037	36.76	98.9245	5.8253	-20.743
2.070	37.13	98.8901	5.8233	-20.521
2.103	37.50	98.8552	5.8212	-20.296
2.137	37.87	98.8199	5.8192	-20.067
2.170	38.24	98.7842	5.8171	-19.840
2.203	38.61	98.7480	5.8149	-19.612
2.237	38.98	98.7114	5.8128	-19.384
2.270	39.35	98.6746	5.8106	-19.153
2.303	39.72	98.6372	5.8084	-18.921
2.337	40.09	98.5995	5.8062	-18.687
2.370	40.47	98.5612	5.8039	-18.451
2.403	40.84	98.5226	5.8016	-18.213
2.437	41.21	98.4834	5.7993	-17.980
2.470	41.58	98.4439	5.7970	-17.750
2.503	41.95	98.4040	5.7947	-17.519
2.537	42.32	98.3637	5.7923	-17.287
2.570	42.69	98.3230	5.7899	-17.055
2.603	43.06	98.2818	5.7875	-16.821
2.637	43.42	98.2402	5.7850	-16.588
2.670	43.79	98.1982	5.7826	-16.357
2.703	44.16	98.1559	5.7801	-16.128
2.737	44.53	98.1133	5.7775	-15.900
2.770	44.89	98.0702	5.7750	-15.671
2.803	45.25	98.0267	5.7724	-15.447
2.837	45.61	97.9828	5.7699	-15.222
2.870	45.98	97.9387	5.7673	-14.995
2.903	46.34	97.8943	5.7647	-14.770
2.937	46.70	97.8495	5.7620	-14.548
2.970	47.06	97.8044	5.7594	-14.325
3.003	47.42	97.7588	5.7567	-14.104
3.037	47.77	97.7130	5.7540	-13.890
3.070	48.13	97.6668	5.7513	-13.676
3.103	48.49	97.6205	5.7485	-13.461
3.137	48.84	97.5739	5.7458	-13.245
3.170	49.19	97.5270	5.7430	-13.032
3.203	49.55	97.4800	5.7403	-12.819
3.237	49.90	97.4328	5.7375	-12.607
3.270	50.25	97.3852	5.7347	-12.398
3.303	50.60	97.3374	5.7319	-12.191
3.337	50.95	97.2894	5.7290	-11.983
3.370	51.30	97.2413	5.7262	-11.775
3.403	51.65	97.1929	5.7234	-11.570
3.437	51.99	97.1444	5.7205	-11.365
3.470	52.34	97.0959	5.7176	-11.163
3.503	52.69	97.0474	5.7148	-10.963
3.537	53.03	96.9988	5.7119	-10.766
3.570	53.38	96.9502	5.7091	-10.571
3.603	53.72	96.9014	5.7062	-10.377
3.637	54.07	96.8526	5.7033	-10.181
3.670	54.41	96.8038	5.7004	-9.989
3.703	54.75	96.7550	5.6976	-9.797
3.737	55.09	96.7061	5.6947	-9.606
3.770	55.44	96.6573	5.6918	-9.417
3.803	55.78	96.6084	5.6889	-9.228
3.837	56.12	96.5596	5.6861	-9.041
3.870	56.46	96.5109	5.6832	-8.855
3.903	56.80	96.4622	5.6803	-8.672
3.937	57.15	96.4137	5.6775	-8.486
3.970	57.49	96.3654	5.6746	-8.301
4.003	57.83	96.3172	5.6718	-8.115
4.037	58.17	96.2690	5.6689	-7.931
4.070	58.51	96.2210	5.6661	-7.747
4.103	58.85	96.1731	5.6633	-7.569
4.137	59.19	96.1255	5.6605	-7.390
4.170	59.53	96.0782	5.6577	-7.211
4.203	59.87	96.0310	5.6549	-7.032
4.237	60.20	95.9840	5.6522	-6.859
4.270	60.54	95.9372	5.6494	-6.688
4.303	60.88	95.8906	5.6467	-6.513
4.337	61.22	95.8443	5.6439	-6.336
4.370	61.57	95.7982	5.6412	-6.163
4.403	61.91	95.7524	5.6385	-5.990
4.437	62.25	95.7068	5.6358	-5.821
4.470	62.59	95.6616	5.6332	-5.652
4.503	62.93	95.6166	5.6305	-5.482
4.537	63.27	95.5718	5.6279	-5.316
4.570	63.60	95.5273	5.6253	-5.151
4.603	63.94	95.4831	5.6227	-4.986
4.637	64.29	95.4392	5.6201	-4.820
4.670	64.63	95.3958	5.6175	-4.653
4.703	64.97	95.3527	5.6150	-4.489
4.737	65.31	95.3100	5.6125	-4.327
4.770	65.65	95.2677	5.6100	-4.165
4.803	65.99	95.2258	5.6075	-4.001
4.837	66.33	95.1842	5.6051	-3.839
4.870	66.68	95.1430	5.6026	-3.679
4.903	67.02	95.1021	5.6002	-3.519
4.937	67.36	95.0617	5.5978	-3.359
4.970	67.70	95.0215	5.5955	-3.200
5.003	68.05	94.9818	5.5931	-3.041
5.037	68.39	94.9425	5.5908	-2.883
5.070	68.73	94.9035	5.5885	-2.726
5.103	69.08	94.8649	5.5863	-2.572
5.137	69.42	94.8266	5.5840	-2.423
5.170	69.76	94.7888	5.5818	-2.271
5.203	70.11	94.7514	5.5796	-2.121
5.237	70.45	94.7143	5.5774	-1.969
5.270	70.80	94.6777	5.5752	-1.816
5.303	71.14	94.6415	5.5731	-1.668
5.337	71.49	94.6057	5.5710	-1.523
5.370	71.83	94.5704	5.5689	-1.376
5.403	72.18	94.5354	5.5669	-1.232
5.437	72.52	94.5008	5.5648	-1.088
5.470	72.87	94.4666	5.5628	-0.942
5.503	73.21	94.4329	5.5608	-0.796
5.537	73.56	94.3995	5.5589	-0.656
5.570	73.91	94.3666	5.5569	-0.516
5.603	74.25	94.3340	5.5550	-0.375
5.637	74.60	94.3018	5.5531	-0.233
5.670	74.95	94.2699	5.5512	-0.095
5.703	75.30	94.2386	5.5494	0.046
5.737	75.64	94.2075	5.5476	0.180
5.770	75.99	94.1770	5.5458	0.314
5.803	76.34	94.1469	5.5440	0.448
5.837	76.69	94.1172	5.5422	0.584
5.870	77.03	94.0880	5.5405	0.716
5.903	77.38	94.0592	5.5388	0.847
5.937	77.73	94.0308	5.5371	0.977
5.970	78.08	94.0027	5.5355	1.109
6.003	78.43	93.9750	5.5339	1.233
6.037	78.77	93.9476	5.5322	1.355
6.070	79.12	93.9206	5.5307	1.476
6.103	79.47	93.8941	5.5291	1.599
6.137	79.82	93.8680	5.5276	1.725
6.170	80.17	93.8422	5.5260	1.846
6.203	80.52	93.8167	5.5245	1.966
6.237	80.86	93.7918	5.5231	2.089
6.270	81.21	93.7673	5.5216	2.206
6.303	81.56	93.7430	5.5202	2.320
6.337	81.91	93.7190	5.5188	2.434
6.370	82.26	93.6954	5.5174	2.549
6.403	82.61	93.6721	5.5160	2.665
6.437	82.96	93.6493	5.5147	2.780
6.470	83.30	93.6268	5.5134	2.895
6.503	83.65	93.6047	5.5121	3.008
6.537	84.00	93.5828	5.5108	3.114
6.570	84.35	93.5612	5.5095	3.220
6.603	84.70	93.5401	5.5082	3.324
6.637	85.05	93.5193	5.5070	3.428
6.670	85.40	93.4989	5.5058	3.530
6.703	85.74	93.4787	5.5046	3.633
6.737	86.09	93.4589	5.5035	3.733
6.770	86.44	93.4393	5.5023	3.832
6.803	86.79	93.4200	5.5012	3.930
6.837	87.14	93.4009	5.5001	4.031
6.870	87.49	93.3822	5.4990	4.129
6.903	87.83	93.3639	5.4979	4.222
6.937	88.18	93.3458	5.4968	4.318
6.970	88.53	93.3281	5.4958	4.407
7.003	88.88	93.3108	5.4947	4.497
7.037	89.22	93.2937	5.4937	4.584
7.070	89.57	93.2768	5.4927	4.677
7.103	89.92	93.2601	5.4918	4.765
7.137	90.27	93.2439	5.4908	4.852
7.170	90.61	93.2280	5.4899	4.935
7.203	90.96	93.2123	5.4889	5.015
7.237	91.31	93.1969	5.4880	5.097
7.270	91.66	93.1817	5.4871	5.179
7.303	92.00	93.1668	5.4863	5.260
7.337	92.35	93.1522	5.4854	5.335
7.370	92.70	93.1379	5.4846	5.411
7.403	93.04	93.1237	5.4837	5.486
7.437	93.39	93.1098	5.4829	5.558
7.470	93.74	93.0961	5.4821	5.629
7.503	94.08	93.0827	5.4813	5.697
7.537	94.43	93.0695	5.4805	5.767
7.570	94.78	93.0566	5.4798	5.834
7.603	95.12	93.0439	5.4790	5.903
7.637	95.47	93.0313	5.4783	5.966
7.670	95.81	93.0191	5.4776	6.030
7.703	96.16	93.0071	5.4769	6.093
7.737	96.51	92.9953	5.4762	6.155
7.770	96.85	92.9837	5.4755	6.218
7.803	97.20	92.9723	5.4748	6.279
7.837	97.54	92.9611	5.4742	6.338
7.870	97.89	92.9500	5.4735	6.395
7.903	98.23	92.9391	5.4729	6.444
7.937	98.58	92.9285	5.4722	6.495
7.970	98.92	92.9180	5.4716	6.552
8.003	99.27	92.9078	5.4710	6.606
8.037	99.62	92.8978	5.4704	6.654
8.070	99.96	92.8879	5.4698	6.704
8.103	100.31	92.8783	5.4693	6.756
8.137	100.65	92.8688	5.4687	6.804
8.170	101.00	92.8595	5.4682	6.849
8.203	101.34	92.8504	5.4676	6.891
8.237	101.69	92.8414	5.4671	6.938
8.270	102.03	92.8327	5.4666	6.983
8.303	102.38	92.8242	5.4661	7.027
8.337	102.72	92.8158	5.4656	7.070
8.370	103.07	92.8076	5.4651	7.106
8.403	103.41	92.7995	5.4646	7.137
8.437	103.76	92.7914	5.4642	7.172
8.470	104.10	92.7836	5.4637	7.210
8.503	104.44	92.7759	5.4633	7.249
8.537	104.79	92.7683	5.4628	7.282
8.570	105.13	92.7609	5.4624	7.314
8.603	105.47	92.7536	5.4619	7.347
8.637	105.82	92.7466	5.4615	7.379
8.670	106.16	92.7397	5.4611	7.409
8.695	106.42	92.7346	5.4608	7.429

[step]
Isothermal 30.0 min
Time	Temperature	Weight	Weight	Heat Flow
min	°C	%	mg	mW
8.703	106.51	92.7330	5.4607	7.436
8.812	107.62	92.7119	5.4595	7.529
8.920	108.70	92.6919	5.4583	7.678
9.028	109.71	92.6727	5.4572	7.904
9.137	110.63	92.6544	5.4561	8.209
9.245	111.43	92.6368	5.4551	8.589
9.353	112.11	92.6199	5.4541	9.014
9.462	112.67	92.6042	5.4531	9.472
9.570	113.09	92.5900	5.4523	9.965
9.678	113.38	92.5763	5.4515	10.456
9.787	113.55	92.5633	5.4507	10.912
9.895	113.63	92.5511	5.4500	11.331
10.003	113.62	92.5402	5.4494	11.688
10.112	113.54	92.5302	5.4488	11.996
10.220	113.41	92.5206	5.4482	12.225
10.328	113.26	92.5123	5.4477	12.372
10.437	113.10	92.5048	5.4473	12.459
10.545	112.93	92.4981	5.4469	12.499
10.653	112.76	92.4925	5.4466	12.519
10.762	112.61	92.4873	5.4463	12.521
10.870	112.47	92.4825	5.4460	12.507
10.978	112.34	92.4783	5.4457	12.460
11.087	112.24	92.4746	5.4455	12.387
11.195	112.16	92.4711	5.4453	12.315
11.303	112.10	92.4680	5.4451	12.242
11.412	112.07	92.4651	5.4449	12.171
11.520	112.06	92.4625	5.4448	12.092
11.628	112.06	92.4599	5.4446	12.030
11.737	112.09	92.4577	5.4445	11.981
11.845	112.13	92.4557	5.4444	11.927
11.953	112.18	92.4535	5.4443	11.885
12.062	112.25	92.4515	5.4441	11.857
12.170	112.32	92.4495	5.4440	11.836
12.278	112.39	92.4478	5.4439	11.816
12.387	112.47	92.4461	5.4438	11.804
12.495	112.55	92.4443	5.4437	11.797
12.603	112.63	92.4428	5.4436	11.794
12.712	112.71	92.4410	5.4435	11.798
12.820	112.78	92.4395	5.4434	11.810
12.928	112.85	92.4380	5.4434	11.824
13.037	112.91	92.4367	5.4433	11.844
13.145	112.97	92.4349	5.4432	11.868
13.253	113.02	92.4336	5.4431	11.892
13.362	113.06	92.4320	5.4430	11.917
13.470	113.10	92.4304	5.4429	11.939
13.578	113.13	92.4291	5.4428	11.959
13.687	113.15	92.4280	5.4428	11.980
13.795	113.17	92.4271	5.4427	11.998
13.903	113.19	92.4258	5.4426	12.014
14.012	113.20	92.4247	5.4426	12.030
14.120	113.21	92.4240	5.4425	12.047
14.228	113.21	92.4231	5.4425	12.056
14.337	113.22	92.4219	5.4424	12.065
14.445	113.22	92.4208	5.4423	12.071
14.553	113.22	92.4196	5.4423	12.072
14.662	113.22	92.4191	5.4422	12.072
14.770	113.22	92.4184	5.4422	12.071
14.878	113.22	92.4177	5.4422	12.069
14.987	113.22	92.4170	5.4421	12.066
15.095	113.22	92.4163	5.4421	12.062
15.203	113.23	92.4155	5.4420	12.055
15.312	113.23	92.4151	5.4420	12.048
15.420	113.23	92.4144	5.4420	12.041
15.528	113.23	92.4138	5.4419	12.035
15.637	113.24	92.4131	5.4419	12.028
15.745	113.25	92.4126	5.4419	12.022
15.853	113.25	92.4123	5.4418	12.015
15.962	113.26	92.4116	5.4418	12.007
16.070	113.27	92.4110	5.4418	12.002
16.178	113.28	92.4105	5.4417	12.000
16.287	113.28	92.4099	5.4417	11.993
16.395	113.29	92.4094	5.4417	11.986
16.503	113.30	92.4089	5.4416	11.984
16.612	113.30	92.4080	5.4416	11.979
16.720	113.31	92.4076	5.4416	11.974
16.828	113.32	92.4072	5.4415	11.970
16.937	113.33	92.4069	5.4415	11.968
17.045	113.33	92.4066	5.4415	11.968
17.153	113.34	92.4062	5.4415	11.965
17.262	113.34	92.4058	5.4415	11.963
17.370	113.35	92.4054	5.4414	11.958
17.478	113.35	92.4053	5.4414	11.957
17.587	113.35	92.4049	5.4414	11.956
17.695	113.36	92.4047	5.4414	11.953
17.803	113.36	92.4044	5.4414	11.948
17.912	113.36	92.4038	5.4413	11.946
18.020	113.36	92.4032	5.4413	11.943
18.128	113.37	92.4029	5.4413	11.938
18.237	113.37	92.4024	5.4413	11.937
18.345	113.37	92.4023	5.4412	11.934
18.453	113.37	92.4022	5.4412	11.929
18.562	113.37	92.4019	5.4412	11.925
18.670	113.37	92.4015	5.4412	11.917
18.778	113.37	92.4012	5.4412	11.913
18.887	113.37	92.4009	5.4412	11.909
18.995	113.37	92.4005	5.4411	11.905
19.103	113.37	92.4004	5.4411	11.898
19.212	113.37	92.4001	5.4411	11.896
19.320	113.37	92.3998	5.4411	11.895
19.428	113.37	92.3995	5.4411	11.891
19.537	113.37	92.3990	5.4411	11.887
19.645	113.37	92.3986	5.4410	11.883
19.753	113.37	92.3984	5.4410	11.879
19.862	113.38	92.3980	5.4410	11.876
19.970	113.37	92.3977	5.4410	11.871
20.078	113.37	92.3978	5.4410	11.863
20.187	113.38	92.3975	5.4410	11.855
20.295	113.38	92.3975	5.4410	11.850
20.403	113.38	92.3972	5.4409	11.843
20.512	113.38	92.3965	5.4409	11.837
20.620	113.38	92.3963	5.4409	11.834
20.728	113.38	92.3964	5.4409	11.832
20.837	113.38	92.3961	5.4409	11.826
20.945	113.38	92.3957	5.4409	11.822
21.053	113.38	92.3959	5.4409	11.816
21.162	113.38	92.3958	5.4409	11.810
21.270	113.38	92.3956	5.4409	11.806
21.378	113.38	92.3954	5.4408	11.801
21.487	113.38	92.3954	5.4408	11.796
21.595	113.38	92.3954	5.4408	11.790
21.703	113.38	92.3949	5.4408	11.787
21.812	113.38	92.3948	5.4408	11.782
21.920	113.37	92.3946	5.4408	11.781
22.028	113.37	92.3943	5.4408	11.776
22.137	113.37	92.3940	5.4408	11.773
22.245	113.37	92.3940	5.4408	11.772
22.353	113.37	92.3938	5.4407	11.769
22.462	113.37	92.3939	5.4408	11.764
22.570	113.37	92.3940	5.4408	11.761
22.678	113.37	92.3939	5.4408	11.758
22.787	113.37	92.3937	5.4407	11.753
22.895	113.37	92.3933	5.4407	11.750
23.003	113.37	92.3931	5.4407	11.745
23.112	113.37	92.3932	5.4407	11.738
23.220	113.37	92.3931	5.4407	11.734
23.328	113.37	92.3929	5.4407	11.728
23.437	113.37	92.3926	5.4407	11.721
23.545	113.37	92.3923	5.4407	11.718
23.653	113.37	92.3921	5.4406	11.716
23.762	113.37	92.3919	5.4406	11.711
23.870	113.37	92.3919	5.4406	11.705
23.978	113.37	92.3919	5.4406	11.699
24.087	113.37	92.3917	5.4406	11.697
24.195	113.37	92.3916	5.4406	11.692
24.303	113.36	92.3916	5.4406	11.693
24.412	113.37	92.3914	5.4406	11.690
24.520	113.36	92.3939	5.4408	11.680
24.628	113.36	92.3926	5.4407	11.672
24.737	113.36	92.3915	5.4406	11.663
24.845	113.36	92.3906	5.4406	11.660
24.953	113.36	92.3902	5.4405	11.656
25.062	113.36	92.3901	5.4405	11.649
25.170	113.36	92.3897	5.4405	11.645
25.278	113.36	92.3895	5.4405	11.640
25.387	113.36	92.3894	5.4405	11.637
25.495	113.36	92.3894	5.4405	11.635
25.603	113.36	92.3890	5.4405	11.630
25.712	113.36	92.3888	5.4405	11.627
25.820	113.36	92.3886	5.4404	11.625
25.928	113.36	92.3885	5.4404	11.623
26.037	113.36	92.3885	5.4404	11.618
26.145	113.36	92.3885	5.4404	11.616
26.253	113.36	92.3882	5.4404	11.612
26.362	113.36	92.3880	5.4404	11.608
26.470	113.36	92.3880	5.4404	11.605
26.578	113.35	92.3883	5.4404	11.600
26.687	113.35	92.3882	5.4404	11.597
26.795	113.35	92.3881	5.4404	11.591
26.903	113.35	92.3880	5.4404	11.590
27.012	113.35	92.3880	5.4404	11.587
27.120	113.35	92.3879	5.4404	11.583
27.228	113.35	92.3879	5.4404	11.578
27.337	113.35	92.3878	5.4404	11.574
27.445	113.35	92.3877	5.4404	11.571
27.553	113.35	92.3876	5.4404	11.567
27.662	113.35	92.3876	5.4404	11.563
27.770	113.35	92.3876	5.4404	11.556
27.878	113.35	92.3876	5.4404	11.552
27.987	113.35	92.3875	5.4404	11.549
28.095	113.35	92.3873	5.4404	11.543
28.203	113.35	92.3873	5.4404	11.540
28.312	113.35	92.3872	5.4404	11.540
28.420	113.35	92.3872	5.4404	11.538
28.528	113.35	92.3872	5.4404	11.534
28.637	113.35	92.3870	5.4404	11.530
28.745	113.35	92.3871	5.4404	11.529
28.853	113.34	92.3871	5.4404	11.527
28.962	113.34	92.3870	5.4403	11.522
29.070	113.34	92.3870	5.4403	11.518
29.178	113.34	92.3868	5.4403	11.513
29.287	113.34	92.3865	5.4403	11.513
29.395	113.34	92.3865	5.4403	11.513
29.503	113.34	92.3864	5.4403	11.506
29.612	113.34	92.3860	5.4403	11.503
29.720	113.34	92.3860	5.4403	11.502
29.828	113.34	92.3862	5.4403	11.503
29.937	113.34	92.3864	5.4403	11.500
30.045	113.34	92.3863	5.4403	11.499
30.153	113.34	92.3862	5.4403	11.495
30.262	113.34	92.3860	5.4403	11.490
30.370	113.34	92.3861	5.4403	11.487
30.478	113.34	92.3860	5.4403	11.484
30.587	113.34	92.3861	5.4403	11.481
30.695	113.34	92.3860	5.4403	11.478
30.803	113.34	92.3860	5.4403	11.475
30.912	113.34	92.3859	5.4403	11.473
31.020	113.34	92.3859	5.4403	11.470
31.128	113.34	92.3857	5.4403	11.469
31.237	113.34	92.3856	5.4403	11.467
31.345	113.34	92.3858	5.4403	11.465
31.453	113.34	92.3856	5.4403	11.463
31.562	113.34	92.3856	5.4403	11.461
31.670	113.34	92.3855	5.4403	11.456
31.778	113.34	92.3856	5.4403	11.450
31.887	113.33	92.3855	5.4403	11.447
31.995	113.33	92.3856	5.4403	11.445
32.103	113.34	92.3855	5.4403	11.442
32.212	113.34	92.3851	5.4402	11.440
[...]
152.878	946.70	4.5727	0.2693	62.243
152.920	946.99	4.5725	0.2693	63.036
152.962	947.24	4.5721	0.2692	63.897
153.003	947.47	4.5718	0.2692	64.805
153.045	947.66	4.5716	0.2692	65.738
153.087	947.83	4.5714	0.2692	66.686
153.128	947.97	4.5712	0.2692	67.643
153.170	948.09	4.5709	0.2692	68.614
153.212	948.19	4.5707	0.2692	69.578
153.253	948.27	4.5705	0.2691	70.527
153.295	948.34	4.5704	0.2691	71.461
153.337	948.39	4.5702	0.2691	72.353
153.378	948.43	4.5700	0.2691	73.214
153.420	948.47	4.5699	0.2691	74.056
153.462	948.50	4.5697	0.2691	74.864
153.503	948.53	4.5696	0.2691	75.638
153.545	948.55	4.5695	0.2691	76.386
153.587	948.57	4.5695	0.2691	77.106
153.628	948.59	4.5695	0.2691	77.794
153.670	948.61	4.5695	0.2691	78.454
153.712	948.63	4.5694	0.2691	79.091
153.753	948.64	4.5695	0.2691	79.698
153.795	948.66	4.5695	0.2691	80.279
153.837	948.68	4.5694	0.2691	80.841
153.878	948.70	4.5694	0.2691	81.389
153.920	948.72	4.5694	0.2691	81.911
153.962	948.74	4.5695	0.2691	82.415
154.003	948.77	4.5696	0.2691	82.908
154.045	948.79	4.5696	0.2691	83.380
154.087	948.81	4.5695	0.2691	83.845
154.128	948.84	4.5693	0.2691	84.302
154.170	948.86	4.5692	0.2691	84.744
154.212	948.88	4.5691	0.2691	85.182
154.253	948.91	4.5691	0.2691	85.611
154.295	948.93	4.5691	0.2691	86.024
154.337	948.95	4.5690	0.2691	86.423
154.378	948.98	4.5690	0.2690	86.815
154.420	949.00	4.5689	0.2690	87.200
154.462	949.02	4.5688	0.2690	87.575
154.503	949.04	4.5687	0.2690	87.944
154.545	949.06	4.5687	0.2690	88.312
154.587	949.09	4.5686	0.2690	88.670
154.628	949.11	4.5684	0.2690	89.015
154.670	949.13	4.5683	0.2690	89.361
154.712	949.15	4.5681	0.2690	89.696
154.753	949.16	4.5680	0.2690	90.027
154.795	949.18	4.5679	0.2690	90.347
154.837	949.20	4.5678	0.2690	90.644
154.878	949.22	4.5676	0.2690	90.932
154.920	949.23	4.5675	0.2690	91.225
154.962	949.25	4.5676	0.2690	91.526
155.003	949.27	4.5676	0.2690	91.810
155.045	949.28	4.5675	0.2690	92.079
155.087	949.29	4.5674	0.2690	92.342
155.128	949.31	4.5673	0.2690	92.594
155.170	949.32	4.5671	0.2689	92.842
155.212	949.34	4.5670	0.2689	93.091
155.253	949.35	4.5669	0.2689	93.333
155.295	949.36	4.5667	0.2689	93.558
155.337	949.37	4.5665	0.2689	93.776
155.378	949.39	4.5664	0.2689	94.002
155.420	949.40	4.5662	0.2689	94.230
155.462	949.41	4.5661	0.2689	94.444
155.503	949.42	4.5661	0.2689	94.645
155.545	949.43	4.5660	0.2689	94.842
155.587	949.44	4.5657	0.2689	95.043
155.628	949.45	4.5655	0.2688	95.245
155.670	949.46	4.5654	0.2688	95.424
155.712	949.47	4.5652	0.2688	95.596
155.753	949.48	4.5651	0.2688	95.775
155.795	949.49	4.5649	0.2688	95.953
155.837	949.50	4.5645	0.2688	96.118
155.878	949.51	4.5642	0.2688	96.284
155.920	949.52	4.5639	0.2688	96.459
155.962	949.52	4.5637	0.2687	96.611
156.003	949.53	4.5634	0.2687	96.751
156.045	949.54	4.5631	0.2687	96.894
156.087	949.55	4.5628	0.2687	97.040
156.128	949.55	4.5626	0.2687	97.186
156.170	949.56	4.5623	0.2687	97.321
156.212	949.57	4.5620	0.2686	97.451
156.253	949.57	4.5618	0.2686	97.584
156.295	949.58	4.5617	0.2686	97.711
156.337	949.59	4.5615	0.2686	97.829
156.378	949.59	4.5613	0.2686	97.946
156.420	949.60	4.5611	0.2686	98.070
156.462	949.61	4.5610	0.2686	98.190
156.503	949.61	4.5609	0.2686	98.302
156.545	949.62	4.5607	0.2686	98.399
156.587	949.62	4.5605	0.2686	98.488
156.628	949.63	4.5602	0.2685	98.595
156.670	949.64	4.5600	0.2685	98.700
156.712	949.64	4.5597	0.2685	98.793
156.753	949.65	4.5595	0.2685	98.886
156.795	949.65	4.5593	0.2685	98.989
156.837	949.66	4.5590	0.2685	99.093
156.878	949.66	4.5588	0.2685	99.178
156.920	949.67	4.5586	0.2684	99.272
156.962	949.67	4.5585	0.2684	99.363
157.003	949.68	4.5582	0.2684	99.441
157.045	949.68	4.5579	0.2684	99.524
157.087	949.68	4.5577	0.2684	99.608
157.128	949.69	4.5574	0.2684	99.687
157.170	949.69	4.5572	0.2684	99.766
157.212	949.70	4.5570	0.2683	99.841
157.253	949.70	4.5567	0.2683	99.908
157.295	949.70	4.5566	0.2683	99.978
157.337	949.71	4.5566	0.2683	100.052
157.378	949.71	4.5565	0.2683	100.123
157.420	949.72	4.5563	0.2683	100.192
157.462	949.72	4.5560	0.2683	100.262
157.503	949.72	4.5557	0.2683	100.319
157.545	949.73	4.5555	0.2683	100.368
157.587	949.73	4.5551	0.2682	100.422
157.628	949.73	4.5548	0.2682	100.486
157.670	949.74	4.5545	0.2682	100.563
157.712	949.74	4.5543	0.2682	100.630
157.753	949.74	4.5540	0.2682	100.683
157.795	949.75	4.5538	0.2682	100.736
157.837	949.75	4.5535	0.2681	100.788
157.878	949.75	4.5533	0.2681	100.835
157.920	949.75	4.5530	0.2681	100.885
157.962	949.76	4.5527	0.2681	100.938
158.003	949.76	4.5524	0.2681	100.988
158.045	949.76	4.5522	0.2681	101.034
158.087	949.77	4.5520	0.2681	101.082
158.128	949.77	4.5518	0.2680	101.128
158.170	949.77	4.5517	0.2680	101.168
158.212	949.77	4.5516	0.2680	101.210
158.253	949.77	4.5514	0.2680	101.261
158.295	949.78	4.5511	0.2680	101.311
158.337	949.78	4.5508	0.2680	101.364
158.378	949.78	4.5505	0.2680	101.416
158.420	949.78	4.5504	0.2680	101.461
158.462	949.79	4.5501	0.2679	101.497
158.503	949.79	4.5498	0.2679	101.523
158.545	949.79	4.5496	0.2679	101.557
158.587	949.79	4.5493	0.2679	101.595
158.628	949.79	4.5490	0.2679	101.626
158.670	949.80	4.5487	0.2679	101.659
158.712	949.80	4.5484	0.2678	101.690
158.753	949.80	4.5482	0.2678	101.713
158.795	949.80	4.5479	0.2678	101.741
158.837	949.80	4.5476	0.2678	101.771
158.878	949.81	4.5473	0.2678	101.804
158.920	949.81	4.5471	0.2678	101.840
158.962	949.81	4.5468	0.2677	101.869
159.003	949.81	4.5465	0.2677	101.899
159.045	949.81	4.5462	0.2677	101.932
159.087	949.81	4.5460	0.2677	101.964
159.128	949.82	4.5459	0.2677	101.996
159.170	949.82	4.5457	0.2677	102.034
159.212	949.82	4.5454	0.2677	102.069
159.253	949.82	4.5451	0.2676	102.095
159.295	949.82	4.5450	0.2676	102.116
159.337	949.82	4.5449	0.2676	102.136
159.378	949.83	4.5447	0.2676	102.156
159.420	949.83	4.5444	0.2676	102.178
159.462	949.83	4.5442	0.2676	102.202
159.503	949.83	4.5440	0.2676	102.232
159.545	949.83	4.5437	0.2676	102.263
159.587	949.83	4.5435	0.2676	102.293
159.628	949.83	4.5433	0.2675	102.323
159.670	949.83	4.5432	0.2675	102.352
159.712	949.83	4.5430	0.2675	102.382
159.753	949.84	4.5428	0.2675	102.412
159.795	949.84	4.5426	0.2675	102.434
159.837	949.84	4.5425	0.2675	102.451
159.878	949.84	4.5423	0.2675	102.471
159.920	949.84	4.5421	0.2675	102.493
159.962	949.84	4.5418	0.2674	102.513
160.003	949.84	4.5415	0.2674	102.531
160.045	949.85	4.5412	0.2674	102.547
160.087	949.85	4.5409	0.2674	102.566
160.128	949.85	4.5407	0.2674	102.582
160.170	949.85	4.5405	0.2674	102.598
160.212	949.85	4.5404	0.2674	102.617
160.253	949.85	4.5401	0.2674	102.635
160.295	949.85	4.5398	0.2673	102.653
160.337	949.85	4.5396	0.2673	102.670
160.378	949.85	4.5393	0.2673	102.688
160.420	949.85	4.5391	0.2673	102.710
160.462	949.85	4.5388	0.2673	102.733
160.503	949.85	4.5386	0.2673	102.757
160.545	949.85	4.5384	0.2672	102.778
160.587	949.86	4.5381	0.2672	102.797
160.628	949.86	4.5378	0.2672	102.819
160.670	949.86	4.5375	0.2672	102.837
160.712	949.86	4.5373	0.2672	102.850
160.753	949.86	4.5371	0.2672	102.866
160.795	949.86	4.5369	0.2672	102.879
160.837	949.86	4.5365	0.2671	102.893
160.878	949.86	4.5362	0.2671	102.908
160.920	949.86	4.5360	0.2671	102.924
160.962	949.86	4.5358	0.2671	102.940
161.003	949.87	4.5356	0.2671	102.957
161.045	949.87	4.5354	0.2671	102.975
161.087	949.87	4.5352	0.2671	102.989
161.128	949.87	4.5350	0.2670	103.003
161.170	949.87	4.5348	0.2670	103.018
161.212	949.87	4.5347	0.2670	103.034
161.253	949.87	4.5345	0.2670	103.050
161.295	949.87	4.5344	0.2670	103.060
161.337	949.87	4.5342	0.2670	103.069
161.378	949.87	4.5340	0.2670	103.078
161.420	949.87	4.5337	0.2670	103.086
161.462	949.87	4.5334	0.2670	103.096
161.503	949.88	4.5332	0.2669	103.110
161.545	949.87	4.5329	0.2669	103.124
161.587	949.87	4.5327	0.2669	103.136
161.628	949.88	4.5324	0.2669	103.149
161.670	949.88	4.5321	0.2669	103.162
161.712	949.88	4.5317	0.2669	103.176
161.753	949.88	4.5314	0.2668	103.191
161.795	949.88	4.5311	0.2668	103.206
161.837	949.88	4.5310	0.2668	103.221
161.878	949.88	4.5308	0.2668	103.237
161.920	949.88	4.5306	0.2668	103.250
161.962	949.88	4.5304	0.2668	103.259
162.003	949.88	4.5302	0.2668	103.268
162.045	949.88	4.5299	0.2667	103.278
162.087	949.88	4.5296	0.2667	103.291
162.128	949.88	4.5293	0.2667	103.302
162.170	949.88	4.5291	0.2667	103.311
162.212	949.88	4.5289	0.2667	103.320
162.253	949.88	4.5286	0.2667	103.331
162.295	949.88	4.5282	0.2667	103.345
162.337	949.88	4.5281	0.2666	103.361
162.378	949.88	4.5279	0.2666	103.377
162.420	949.88	4.5276	0.2666	103.391
162.462	949.88	4.5274	0.2666	103.402
162.503	949.88	4.5272	0.2666	103.412
162.545	949.89	4.5270	0.2666	103.429
162.587	949.89	4.5268	0.2666	103.444
162.628	949.89	4.5266	0.2666	103.454
162.670		4.5263	0.2665
162.703		4.5261	0.2665