File: PSO Kinetics/data/WF115_3.txt
Filename	WF115_3
Instrument name	0650-0369 (192.168.1.2)
Operator	ca527
rundate	11/25/2022
Sample name	WF115_3
proceduresegments	Select Gas: Gas 1 ; Ramp 10.00 °C/min to 110.00 °C; Isothermal 30.0 min; Ramp 10.00 °C/min to 900.00 °C; Isothermal 30.0 min; Select Gas: Gas 2 ; Ramp 10.00 °C/min to 950.00 °C; Isothermal 10.0 min; Data Off ; Equilibrate 30.00 °C
[step]
Ramp 10.00 °C/min to 110.00 °C
Time	Temperature	Weight	Weight	Heat Flow
min	°C	%	mg	mW
0.003		100.0691	3.1891
0.037		100.3973	3.1996
0.070	22.39	100.5368	3.2040	-27.132
0.103	22.54	100.5033	3.2030	-26.986
0.137	22.69	100.4562	3.2015	-26.853
0.170	22.83	100.4132	3.2001	-26.730
0.203	22.97	100.3727	3.1988	-26.613
0.237	23.11	100.3342	3.1976	-26.505
0.270	23.25	100.2971	3.1964	-26.403
0.303	23.39	100.2608	3.1952	-26.307
0.337	23.52	100.2246	3.1941	-26.218
0.370	23.65	100.1882	3.1929	-26.131
0.403	23.79	100.1515	3.1918	-26.048
0.437	23.93	100.1143	3.1906	-25.968
0.470	24.07	100.0760	3.1894	-25.893
0.503	24.21	100.0363	3.1881	-25.824
0.537	24.36	99.9951	3.1868	-25.763
0.570	24.51	99.9528	3.1854	-25.711
0.603	24.67	99.9094	3.1841	-25.668
0.637	24.83	99.8654	3.1826	-25.629
0.670	25.00	99.8211	3.1812	-25.592
0.703	25.17	99.7768	3.1798	-25.553
0.737	25.35	99.7329	3.1784	-25.522
0.770	25.54	99.6896	3.1770	-25.495
0.803	25.74	99.6472	3.1757	-25.469
0.837	25.94	99.6057	3.1744	-25.435
0.870	26.14	99.5654	3.1731	-25.404
0.903	26.36	99.5262	3.1718	-25.367
0.937	26.58	99.4883	3.1706	-25.319
0.970	26.81	99.4515	3.1695	-25.259
1.003	27.05	99.4160	3.1683	-25.191
1.037	27.29	99.3816	3.1672	-25.114
1.070	27.54	99.3480	3.1662	-25.028
1.103	27.80	99.3150	3.1651	-24.930
1.137	28.07	99.2823	3.1641	-24.817
1.170	28.34	99.2499	3.1630	-24.694
1.203	28.62	99.2175	3.1620	-24.560
1.237	28.90	99.1851	3.1610	-24.420
1.270	29.19	99.1525	3.1599	-24.268
1.303	29.49	99.1196	3.1589	-24.110
1.337	29.80	99.0864	3.1578	-23.940
1.370	30.11	99.0528	3.1567	-23.760
1.403	30.42	99.0186	3.1557	-23.567
1.437	30.74	98.9840	3.1546	-23.367
1.470	31.07	98.9490	3.1534	-23.163
1.503	31.40	98.9135	3.1523	-22.949
1.537	31.73	98.8775	3.1512	-22.731
1.570	32.07	98.8412	3.1500	-22.509
1.603	32.41	98.8043	3.1488	-22.281
1.637	32.76	98.7669	3.1476	-22.048
1.670	33.10	98.7289	3.1464	-21.811
1.703	33.46	98.6905	3.1452	-21.568
1.737	33.81	98.6517	3.1440	-21.321
1.770	34.17	98.6124	3.1427	-21.068
1.803	34.53	98.5727	3.1415	-20.812
1.837	34.89	98.5327	3.1402	-20.556
1.870	35.26	98.4924	3.1389	-20.297
1.903	35.62	98.4518	3.1376	-20.037
1.937	35.99	98.4108	3.1363	-19.775
1.970	36.36	98.3695	3.1350	-19.508
2.003	36.73	98.3279	3.1337	-19.237
2.037	37.10	98.2861	3.1323	-18.965
2.070	37.48	98.2439	3.1310	-18.694
2.103	37.85	98.2014	3.1296	-18.420
2.137	38.22	98.1586	3.1283	-18.144
2.170	38.60	98.1156	3.1269	-17.869
2.203	38.98	98.0723	3.1255	-17.586
2.237	39.35	98.0286	3.1241	-17.307
2.270	39.73	97.9847	3.1227	-17.028
2.303	40.11	97.9405	3.1213	-16.755
2.337	40.48	97.8961	3.1199	-16.477
2.370	40.86	97.8514	3.1185	-16.195
2.403	41.24	97.8065	3.1170	-15.919
2.437	41.61	97.7614	3.1156	-15.644
2.470	41.99	97.7159	3.1141	-15.368
2.503	42.36	97.6702	3.1127	-15.090
2.537	42.73	97.6242	3.1112	-14.813
2.570	43.11	97.5781	3.1098	-14.532
2.603	43.48	97.5316	3.1083	-14.253
2.637	43.85	97.4849	3.1068	-13.975
2.670	44.23	97.4382	3.1053	-13.701
2.703	44.59	97.3913	3.1038	-13.428
2.737	44.96	97.3442	3.1023	-13.158
2.770	45.33	97.2971	3.1008	-12.886
2.803	45.70	97.2499	3.0993	-12.614
2.837	46.07	97.2027	3.0978	-12.347
2.870	46.43	97.1555	3.0963	-12.081
2.903	46.80	97.1081	3.0948	-11.815
2.937	47.16	97.0607	3.0933	-11.550
2.970	47.53	97.0132	3.0918	-11.287
3.003	47.89	96.9658	3.0902	-11.027
3.037	48.25	96.9182	3.0887	-10.768
3.070	48.61	96.8706	3.0872	-10.512
3.103	48.97	96.8228	3.0857	-10.258
3.137	49.33	96.7750	3.0842	-10.008
3.170	49.68	96.7274	3.0826	-9.755
3.203	50.04	96.6799	3.0811	-9.504
3.237	50.39	96.6324	3.0796	-9.258
3.270	50.75	96.5852	3.0781	-9.012
3.303	51.10	96.5380	3.0766	-8.770
3.337	51.45	96.4907	3.0751	-8.526
3.370	51.81	96.4435	3.0736	-8.287
3.403	52.16	96.3964	3.0721	-8.050
3.437	52.51	96.3495	3.0706	-7.818
3.470	52.86	96.3026	3.0691	-7.587
3.503	53.21	96.2559	3.0676	-7.356
3.537	53.55	96.2093	3.0661	-7.125
3.570	53.90	96.1628	3.0646	-6.897
3.603	54.25	96.1165	3.0632	-6.672
3.637	54.59	96.0703	3.0617	-6.451
3.670	54.94	96.0243	3.0602	-6.231
3.703	55.28	95.9785	3.0588	-6.014
3.737	55.63	95.9331	3.0573	-5.798
3.770	55.97	95.8878	3.0559	-5.581
3.803	56.32	95.8428	3.0544	-5.366
3.837	56.66	95.7979	3.0530	-5.157
3.870	57.00	95.7533	3.0516	-4.949
3.903	57.35	95.7089	3.0502	-4.741
3.937	57.69	95.6648	3.0488	-4.540
3.970	58.03	95.6209	3.0474	-4.342
4.003	58.37	95.5771	3.0460	-4.141
4.037	58.71	95.5335	3.0446	-3.940
4.070	59.05	95.4903	3.0432	-3.743
4.103	59.39	95.4473	3.0418	-3.548
4.137	59.74	95.4045	3.0405	-3.354
4.170	60.08	95.3622	3.0391	-3.164
4.203	60.42	95.3203	3.0378	-2.976
4.237	60.76	95.2785	3.0365	-2.790
4.270	61.10	95.2370	3.0351	-2.605
4.303	61.44	95.1959	3.0338	-2.420
4.337	61.78	95.1552	3.0325	-2.235
4.370	62.12	95.1149	3.0313	-2.048
4.403	62.46	95.0748	3.0300	-1.865
4.437	62.80	95.0350	3.0287	-1.687
4.470	63.14	94.9954	3.0274	-1.515
4.503	63.48	94.9560	3.0262	-1.346
4.537	63.82	94.9170	3.0249	-1.173
4.570	64.16	94.8783	3.0237	-1.000
4.603	64.50	94.8401	3.0225	-0.835
4.637	64.84	94.8023	3.0213	-0.673
4.670	65.18	94.7649	3.0201	-0.508
4.703	65.52	94.7278	3.0189	-0.344
4.737	65.86	94.6910	3.0177	-0.181
4.770	66.20	94.6547	3.0166	-0.021
4.803	66.54	94.6187	3.0154	0.137
4.837	66.89	94.5831	3.0143	0.293
4.870	67.23	94.5477	3.0132	0.448
4.903	67.57	94.5127	3.0121	0.602
4.937	67.91	94.4781	3.0110	0.752
4.970	68.25	94.4438	3.0099	0.900
5.003	68.59	94.4099	3.0088	1.052
5.037	68.93	94.3763	3.0077	1.204
5.070	69.28	94.3431	3.0067	1.349
5.103	69.62	94.3102	3.0056	1.486
5.137	69.96	94.2775	3.0046	1.626
5.170	70.30	94.2452	3.0035	1.770
5.203	70.65	94.2134	3.0025	1.912
5.237	70.99	94.1819	3.0015	2.052
5.270	71.33	94.1506	3.0005	2.187
5.303	71.67	94.1195	2.9995	2.319
5.337	72.02	94.0888	2.9986	2.452
5.370	72.36	94.0585	2.9976	2.584
5.403	72.70	94.0286	2.9966	2.714
5.437	73.05	93.9991	2.9957	2.842
5.470	73.39	93.9699	2.9948	2.969
5.503	73.74	93.9411	2.9938	3.099
5.537	74.08	93.9126	2.9929	3.225
5.570	74.42	93.8844	2.9920	3.347
5.603	74.77	93.8566	2.9912	3.469
5.637	75.11	93.8292	2.9903	3.594
5.670	75.46	93.8021	2.9894	3.715
5.703	75.80	93.7754	2.9886	3.835
5.737	76.15	93.7490	2.9877	3.947
5.770	76.49	93.7228	2.9869	4.063
5.803	76.84	93.6969	2.9861	4.177
5.837	77.18	93.6714	2.9852	4.288
5.870	77.53	93.6461	2.9844	4.396
5.903	77.87	93.6211	2.9836	4.505
5.937	78.22	93.5964	2.9829	4.616
5.970	78.57	93.5722	2.9821	4.725
6.003	78.91	93.5483	2.9813	4.830
6.037	79.26	93.5247	2.9806	4.931
6.070	79.60	93.5014	2.9798	5.032
6.103	79.95	93.4783	2.9791	5.136
6.137	80.30	93.4556	2.9784	5.239
6.170	80.64	93.4332	2.9777	5.339
6.203	80.99	93.4110	2.9770	5.438
6.237	81.34	93.3890	2.9763	5.534
6.270	81.68	93.3674	2.9756	5.622
6.303	82.03	93.3460	2.9749	5.716
6.337	82.37	93.3248	2.9742	5.811
6.370	82.72	93.3040	2.9735	5.904
6.403	83.07	93.2837	2.9729	5.995
6.437	83.41	93.2637	2.9723	6.085
6.470	83.76	93.2440	2.9716	6.172
6.503	84.10	93.2244	2.9710	6.256
6.537	84.45	93.2051	2.9704	6.341
6.570	84.80	93.1860	2.9698	6.425
6.603	85.14	93.1672	2.9692	6.509
6.637	85.49	93.1489	2.9686	6.592
6.670	85.84	93.1308	2.9680	6.670
6.703	86.18	93.1130	2.9675	6.746
6.737	86.53	93.0953	2.9669	6.826
6.770	86.88	93.0780	2.9663	6.905
6.803	87.22	93.0609	2.9658	6.979
6.837	87.57	93.0441	2.9653	7.052
6.870	87.91	93.0275	2.9647	7.124
6.903	88.26	93.0111	2.9642	7.198
6.937	88.60	92.9950	2.9637	7.273
6.970	88.95	92.9791	2.9632	7.344
7.003	89.30	92.9635	2.9627	7.412
7.037	89.64	92.9481	2.9622	7.477
7.070	89.99	92.9329	2.9617	7.540
7.103	90.33	92.9179	2.9612	7.600
7.137	90.68	92.9032	2.9608	7.659
7.170	91.03	92.8887	2.9603	7.720
7.203	91.37	92.8745	2.9599	7.782
7.237	91.72	92.8605	2.9594	7.844
7.270	92.06	92.8467	2.9590	7.906
7.303	92.41	92.8331	2.9585	7.965
7.337	92.75	92.8198	2.9581	8.020
7.370	93.10	92.8068	2.9577	8.069
7.403	93.44	92.7940	2.9573	8.120
7.437	93.79	92.7812	2.9569	8.174
7.470	94.13	92.7687	2.9565	8.228
7.503	94.47	92.7564	2.9561	8.276
7.537	94.82	92.7445	2.9557	8.323
7.570	95.16	92.7327	2.9553	8.369
7.603	95.51	92.7211	2.9550	8.415
7.637	95.85	92.7098	2.9546	8.462
7.670	96.20	92.6987	2.9542	8.508
7.703	96.54	92.6879	2.9539	8.552
7.737	96.89	92.6771	2.9536	8.591
7.770	97.23	92.6666	2.9532	8.632
7.803	97.57	92.6562	2.9529	8.677
7.837	97.92	92.6460	2.9526	8.718
7.870	98.26	92.6357	2.9522	8.754
7.903	98.61	92.6256	2.9519	8.788
7.937	98.95	92.6156	2.9516	8.821
7.970	99.29	92.6059	2.9513	8.853
8.003	99.64	92.5964	2.9510	8.885
8.037	99.98	92.5873	2.9507	8.918
8.070	100.32	92.5783	2.9504	8.948
8.103	100.67	92.5692	2.9501	8.979
8.137	101.01	92.5601	2.9498	9.012
8.170	101.35	92.5513	2.9496	9.040
8.203	101.70	92.5427	2.9493	9.068
8.237	102.04	92.5343	2.9490	9.094
8.270	102.38	92.5261	2.9487	9.118
8.303	102.73	92.5180	2.9485	9.144
8.337	103.07	92.5100	2.9482	9.170
8.370	103.41	92.5023	2.9480	9.198
8.403	103.76	92.4947	2.9477	9.222
8.437	104.10	92.4871	2.9475	9.244
8.470	104.44	92.4796	2.9473	9.264
8.503	104.79	92.4723	2.9470	9.281
8.537	105.13	92.4650	2.9468	9.296
8.570	105.47	92.4578	2.9466	9.313
8.603	105.81	92.4507	2.9463	9.328
8.637	106.16	92.4436	2.9461	9.346
8.670	106.50	92.4369	2.9459	9.364
8.678	106.59	92.4352	2.9459	9.368

[step]
Isothermal 30.0 min
Time	Temperature	Weight	Weight	Heat Flow
min	°C	%	mg	mW
8.687	106.67	92.4336	2.9458	9.373
8.795	107.78	92.4128	2.9451	9.424
8.903	108.86	92.3933	2.9445	9.524
9.012	109.86	92.3738	2.9439	9.716
9.120	110.77	92.3543	2.9433	9.969
9.228	111.56	92.3354	2.9427	10.286
9.337	112.23	92.3169	2.9421	10.636
9.445	112.78	92.2991	2.9415	11.023
9.553	113.19	92.2829	2.9410	11.441
9.662	113.47	92.2668	2.9405	11.845
9.770	113.63	92.2510	2.9400	12.221
9.878	113.70	92.2361	2.9395	12.545
9.987	113.68	92.2220	2.9391	12.820
10.095	113.59	92.2086	2.9386	13.037
10.203	113.46	92.1959	2.9382	13.180
10.312	113.31	92.1848	2.9379	13.257
10.420	113.14	92.1750	2.9376	13.289
10.528	112.97	92.1671	2.9373	13.295
10.637	112.80	92.1596	2.9371	13.277
10.745	112.64	92.1532	2.9369	13.226
10.853	112.50	92.1472	2.9367	13.152
10.962	112.37	92.1416	2.9365	13.063
11.070	112.27	92.1368	2.9363	12.970
11.178	112.19	92.1321	2.9362	12.888
11.287	112.13	92.1277	2.9361	12.781
11.395	112.09	92.1239	2.9359	12.705
11.503	112.08	92.1209	2.9358	12.630
11.612	112.09	92.1173	2.9357	12.556
11.720	112.11	92.1140	2.9356	12.498
11.828	112.15	92.1114	2.9355	12.451
11.937	112.21	92.1086	2.9354	12.402
12.045	112.27	92.1061	2.9354	12.372
12.153	112.35	92.1041	2.9353	12.350
12.262	112.42	92.1024	2.9352	12.330
12.370	112.50	92.1002	2.9352	12.316
12.478	112.58	92.0978	2.9351	12.308
12.587	112.67	92.0956	2.9350	12.305
12.695	112.74	92.0935	2.9350	12.312
12.803	112.82	92.0916	2.9349	12.325
12.912	112.88	92.0896	2.9348	12.340
13.020	112.94	92.0877	2.9348	12.356
13.128	113.00	92.0858	2.9347	12.374
13.237	113.05	92.0839	2.9347	12.391
13.345	113.09	92.0824	2.9346	12.412
13.453	113.13	92.0811	2.9346	12.433
13.562	113.16	92.0798	2.9345	12.451
13.670	113.19	92.0778	2.9345	12.465
13.778	113.21	92.0759	2.9344	12.485
13.887	113.22	92.0747	2.9344	12.500
13.995	113.23	92.0732	2.9343	12.510
14.103	113.24	92.0717	2.9343	12.517
14.212	113.25	92.0704	2.9342	12.523
14.320	113.25	92.0690	2.9342	12.528
14.428	113.25	92.0680	2.9341	12.531
14.537	113.25	92.0668	2.9341	12.530
14.645	113.25	92.0653	2.9341	12.526
14.753	113.25	92.0642	2.9340	12.523
14.862	113.25	92.0631	2.9340	12.518
14.970	113.25	92.0619	2.9340	12.512
15.078	113.26	92.0607	2.9339	12.506
15.187	113.26	92.0599	2.9339	12.499
15.295	113.26	92.0588	2.9339	12.490
15.403	113.26	92.0581	2.9338	12.483
15.512	113.27	92.0574	2.9338	12.476
15.620	113.27	92.0562	2.9338	12.472
15.728	113.28	92.0551	2.9337	12.464
15.837	113.29	92.0543	2.9337	12.453
15.945	113.29	92.0539	2.9337	12.446
16.053	113.30	92.0535	2.9337	12.439
16.162	113.31	92.0529	2.9337	12.432
16.270	113.32	92.0523	2.9337	12.425
16.378	113.33	92.0521	2.9336	12.420
16.487	113.33	92.0515	2.9336	12.414
16.595	113.34	92.0509	2.9336	12.407
16.703	113.35	92.0503	2.9336	12.402
16.812	113.35	92.0496	2.9336	12.398
16.920	113.36	92.0487	2.9335	12.395
17.028	113.37	92.0479	2.9335	12.393
17.137	113.37	92.0471	2.9335	12.392
17.245	113.38	92.0465	2.9335	12.388
17.353	113.38	92.0454	2.9334	12.383
17.462	113.39	92.0448	2.9334	12.382
17.570	113.39	92.0444	2.9334	12.376
17.678	113.39	92.0441	2.9334	12.371
17.787	113.40	92.0438	2.9334	12.368
17.895	113.40	92.0434	2.9334	12.363
18.003	113.40	92.0431	2.9334	12.357
18.112	113.40	92.0430	2.9334	12.351
18.220	113.40	92.0427	2.9333	12.341
18.328	113.40	92.0424	2.9333	12.334
18.437	113.40	92.0416	2.9333	12.327
18.545	113.40	92.0415	2.9333	12.323
18.653	113.40	92.0412	2.9333	12.320
18.762	113.40	92.0409	2.9333	12.317
18.870	113.40	92.0403	2.9333	12.310
18.978	113.40	92.0400	2.9333	12.303
19.087	113.40	92.0396	2.9332	12.298
19.195	113.40	92.0394	2.9332	12.294
19.303	113.40	92.0392	2.9332	12.290
19.412	113.41	92.0392	2.9332	12.284
19.520	113.41	92.0390	2.9332	12.280
19.628	113.41	92.0387	2.9332	12.272
19.737	113.41	92.0383	2.9332	12.266
19.845	113.41	92.0380	2.9332	12.260
19.953	113.41	92.0372	2.9332	12.252
20.062	113.41	92.0366	2.9331	12.245
20.170	113.41	92.0361	2.9331	12.238
20.278	113.41	92.0361	2.9331	12.231
20.387	113.41	92.0358	2.9331	12.230
20.495	113.41	92.0356	2.9331	12.225
20.603	113.41	92.0353	2.9331	12.222
20.712	113.41	92.0346	2.9331	12.219
20.820	113.41	92.0341	2.9331	12.218
20.928	113.41	92.0338	2.9331	12.211
21.037	113.41	92.0333	2.9330	12.207
21.145	113.41	92.0330	2.9330	12.203
21.253	113.41	92.0329	2.9330	12.200
21.362	113.41	92.0325	2.9330	12.200
21.470	113.41	92.0327	2.9330	12.193
21.578	113.41	92.0322	2.9330	12.187
21.687	113.41	92.0322	2.9330	12.182
21.795	113.41	92.0318	2.9330	12.178
21.903	113.41	92.0317	2.9330	12.173
22.012	113.41	92.0317	2.9330	12.168
22.120	113.41	92.0315	2.9330	12.164
22.228	113.41	92.0315	2.9330	12.162
22.337	113.41	92.0316	2.9330	12.156
22.445	113.41	92.0313	2.9330	12.153
22.553	113.41	92.0316	2.9330	12.147
22.662	113.41	92.0313	2.9330	12.141
22.770	113.40	92.0311	2.9330	12.136
22.878	113.40	92.0305	2.9330	12.130
22.987	113.40	92.0301	2.9329	12.125
23.095	113.40	92.0299	2.9329	12.119
23.203	113.40	92.0298	2.9329	12.112
23.312	113.40	92.0297	2.9329	12.103
23.420	113.40	92.0297	2.9329	12.095
23.528	113.40	92.0294	2.9329	12.087
23.637	113.40	92.0293	2.9329	12.083
23.745	113.40	92.0290	2.9329	12.079
23.853	113.40	92.0286	2.9329	12.073
23.962	113.40	92.0280	2.9329	12.069
24.070	113.40	92.0281	2.9329	12.062
24.178	113.40	92.0278	2.9329	12.056
24.287	113.40	92.0274	2.9329	12.053
24.395	113.40	92.0274	2.9329	12.050
24.503	113.40	92.0272	2.9329	12.046
24.612	113.39	92.0270	2.9328	12.039
24.720	113.39	92.0267	2.9328	12.035
24.828	113.39	92.0269	2.9328	12.030
24.937	113.39	92.0270	2.9328	12.025
25.045	113.39	92.0267	2.9328	12.022
25.153	113.39	92.0268	2.9328	12.019
25.262	113.39	92.0266	2.9328	12.015
25.370	113.39	92.0267	2.9328	12.012
25.478	113.39	92.0266	2.9328	12.006
25.587	113.39	92.0266	2.9328	12.001
25.695	113.39	92.0264	2.9328	11.996
25.803	113.39	92.0333	2.9330	11.991
25.912	113.39	92.0212	2.9327	11.993
26.020	113.39	92.0138	2.9324	11.994
26.128	113.39	92.0090	2.9323	11.993
26.237	113.39	92.0066	2.9322	11.990
26.345	113.39	92.0049	2.9321	11.986
26.453	113.39	92.0038	2.9321	11.983
26.562	113.39	92.0034	2.9321	11.977
26.670	113.39	92.0033	2.9321	11.971
26.778	113.39	92.0031	2.9321	11.968
26.887	113.39	92.0025	2.9321	11.962
26.995	113.38	92.0024	2.9321	11.956
27.103	113.39	92.0024	2.9321	11.955
27.212	113.39	92.0022	2.9321	11.951
27.320	113.38	92.0017	2.9320	11.949
27.428	113.38	92.0019	2.9320	11.945
27.537	113.38	92.0019	2.9320	11.941
27.645	113.38	92.0015	2.9320	11.934
27.753	113.38	92.0015	2.9320	11.929
27.862	113.38	92.0016	2.9320	11.922
27.970	113.38	92.0014	2.9320	11.917
28.078	113.38	92.0014	2.9320	11.914
28.187	113.38	92.0012	2.9320	11.910
28.295	113.38	92.0012	2.9320	11.906
28.403	113.38	92.0010	2.9320	11.903
28.512	113.38	92.0004	2.9320	11.900
28.620	113.38	92.0005	2.9320	11.897
28.728	113.38	92.0008	2.9320	11.891
28.837	113.38	92.0010	2.9320	11.886
28.945	113.38	92.0014	2.9320	11.881
29.053	113.37	92.0017	2.9320	11.877
29.162	113.37	92.0016	2.9320	11.872
29.270	113.37	92.0015	2.9320	11.868
29.378	113.37	92.0017	2.9320	11.863
29.487	113.37	92.0017	2.9320	11.859
29.595	113.37	92.0021	2.9320	11.855
29.703	113.37	92.0019	2.9320	11.852
29.812	113.37	92.0015	2.9320	11.847
29.920	113.37	92.0014	2.9320	11.844
30.028	113.37	92.0011	2.9320	11.841
30.137	113.37	92.0005	2.9320	11.836
30.245	113.37	92.0001	2.9320	11.831
30.353	113.37	91.9997	2.9320	11.827
30.462	113.37	91.9995	2.9320	11.824
30.570	113.37	92.0003	2.9320	11.823
30.678	113.37	92.0005	2.9320	11.821
30.787	113.37	92.0008	2.9320	11.815
30.895	113.37	92.0006	2.9320	11.811
31.003	113.37	92.0003	2.9320	11.809
31.112	113.37	92.0003	2.9320	11.803
31.220	113.37	92.0005	2.9320	11.800
31.328	113.36	92.0001	2.9320	11.796
31.437	113.37	92.0000	2.9320	11.795
31.545	113.36	91.9995	2.9320	11.793
31.653	113.36	91.9993	2.9320	11.790
31.762	113.36	91.9994	2.9320	11.786
31.870	113.36	91.9993	2.9320	11.786
31.978	113.36	91.9995	2.9320	11.785
32.087	113.36	92.0000	2.9320	11.778
32.195	113.36	92.0000	2.9320	11.773
32.303	113.36	91.9998	2.9320	11.769
[...]
152.895	947.02	2.0486	0.0653	68.536
152.937	947.28	2.0481	0.0653	69.589
152.978	947.51	2.0474	0.0652	70.714
153.020	947.72	2.0468	0.0652	71.882
153.062	947.90	2.0465	0.0652	73.075
153.103	948.05	2.0460	0.0652	74.275
153.145	948.17	2.0456	0.0652	75.469
153.187	948.28	2.0453	0.0652	76.659
153.228	948.37	2.0450	0.0652	77.832
153.270	948.44	2.0448	0.0652	78.964
153.312	948.51	2.0448	0.0652	80.059
153.353	948.56	2.0447	0.0652	81.116
153.395	948.60	2.0447	0.0652	82.121
153.437	948.64	2.0447	0.0652	83.090
153.478	948.67	2.0446	0.0652	84.015
153.520	948.70	2.0444	0.0652	84.893
153.562	948.72	2.0443	0.0652	85.728
153.603	948.74	2.0444	0.0652	86.516
153.645	948.76	2.0445	0.0652	87.261
153.687	948.78	2.0446	0.0652	87.974
153.728	948.80	2.0448	0.0652	88.649
153.770	948.82	2.0449	0.0652	89.291
153.812	948.85	2.0451	0.0652	89.909
153.853	948.87	2.0451	0.0652	90.498
153.895	948.89	2.0450	0.0652	91.054
153.937	948.91	2.0452	0.0652	91.586
153.978	948.94	2.0453	0.0652	92.103
154.020	948.96	2.0455	0.0652	92.601
154.062	948.98	2.0457	0.0652	93.086
154.103	949.01	2.0458	0.0652	93.546
154.145	949.03	2.0460	0.0652	93.999
154.187	949.06	2.0461	0.0652	94.455
154.228	949.08	2.0462	0.0652	94.897
154.270	949.11	2.0463	0.0652	95.322
154.312	949.13	2.0462	0.0652	95.737
154.353	949.16	2.0462	0.0652	96.148
154.395	949.18	2.0465	0.0652	96.551
154.437	949.20	2.0466	0.0652	96.942
154.478	949.22	2.0466	0.0652	97.319
154.520	949.25	2.0467	0.0652	97.693
154.562	949.27	2.0468	0.0652	98.063
154.603	949.29	2.0468	0.0652	98.420
154.645	949.31	2.0469	0.0652	98.769
154.687	949.33	2.0470	0.0652	99.107
154.728	949.35	2.0471	0.0652	99.437
154.770	949.37	2.0472	0.0652	99.777
154.812	949.39	2.0473	0.0652	100.101
154.853	949.41	2.0473	0.0652	100.408
154.895	949.42	2.0468	0.0652	100.718
154.937	949.44	2.0461	0.0652	101.021
154.978	949.46	2.0457	0.0652	101.319
155.020	949.47	2.0456	0.0652	101.613
155.062	949.49	2.0456	0.0652	101.889
155.103	949.50	2.0456	0.0652	102.157
155.145	949.52	2.0457	0.0652	102.429
155.187	949.53	2.0456	0.0652	102.695
155.228	949.55	2.0456	0.0652	102.953
155.270	949.56	2.0454	0.0652	103.207
155.312	949.57	2.0452	0.0652	103.447
155.353	949.59	2.0451	0.0652	103.677
155.395	949.60	2.0450	0.0652	103.909
155.437	949.61	2.0449	0.0652	104.131
155.478	949.62	2.0449	0.0652	104.346
155.520	949.63	2.0448	0.0652	104.557
155.562	949.64	2.0449	0.0652	104.765
155.603	949.65	2.0449	0.0652	104.960
155.645	949.67	2.0449	0.0652	105.140
155.687	949.68	2.0447	0.0652	105.329
155.728	949.69	2.0446	0.0652	105.509
155.770	949.70	2.0445	0.0652	105.679
155.812	949.71	2.0443	0.0651	105.849
155.853	949.71	2.0440	0.0651	106.014
155.895	949.72	2.0439	0.0651	106.179
155.937	949.73	2.0437	0.0651	106.343
155.978	949.74	2.0433	0.0651	106.498
156.020	949.75	2.0430	0.0651	106.646
156.062	949.76	2.0429	0.0651	106.808
156.103	949.77	2.0427	0.0651	106.950
156.145	949.77	2.0425	0.0651	107.075
156.187	949.78	2.0421	0.0651	107.222
156.228	949.79	2.0419	0.0651	107.365
156.270	949.79	2.0419	0.0651	107.494
156.312	949.80	2.0417	0.0651	107.626
156.353	949.81	2.0415	0.0651	107.757
156.395	949.81	2.0413	0.0651	107.880
156.437	949.82	2.0410	0.0650	107.995
156.478	949.83	2.0407	0.0650	108.100
156.520	949.83	2.0405	0.0650	108.211
156.562	949.84	2.0402	0.0650	108.322
156.603	949.85	2.0399	0.0650	108.424
156.645	949.85	2.0396	0.0650	108.521
156.687	949.86	2.0393	0.0650	108.622
156.728	949.86	2.0389	0.0650	108.730
156.770	949.87	2.0383	0.0650	108.826
156.812	949.88	2.0377	0.0649	108.918
156.853	949.88	2.0374	0.0649	109.016
156.895	949.89	2.0373	0.0649	109.105
156.937	949.89	2.0373	0.0649	109.191
156.978	949.90	2.0370	0.0649	109.263
157.020	949.90	2.0368	0.0649	109.335
157.062	949.91	2.0368	0.0649	109.418
157.103	949.91	2.0368	0.0649	109.500
157.145	949.91	2.0365	0.0649	109.576
157.187	949.92	2.0363	0.0649	109.648
157.228	949.92	2.0361	0.0649	109.716
157.270	949.93	2.0359	0.0649	109.785
157.312	949.93	2.0356	0.0649	109.865
157.353	949.93	2.0352	0.0649	109.940
157.395	949.94	2.0348	0.0648	110.005
157.437	949.94	2.0343	0.0648	110.068
157.478	949.95	2.0339	0.0648	110.129
157.520	949.95	2.0337	0.0648	110.198
157.562	949.95	2.0336	0.0648	110.269
157.603	949.96	2.0334	0.0648	110.332
157.645	949.96	2.0333	0.0648	110.395
157.687	949.96	2.0331	0.0648	110.454
157.728	949.97	2.0330	0.0648	110.509
157.770	949.97	2.0326	0.0648	110.562
157.812	949.97	2.0321	0.0648	110.608
157.853	949.98	2.0317	0.0647	110.653
157.895	949.98	2.0316	0.0647	110.703
157.937	949.98	2.0315	0.0647	110.754
157.978	949.99	2.0315	0.0647	110.804
158.020	949.99	2.0313	0.0647	110.858
158.062	949.99	2.0310	0.0647	110.910
158.103	949.99	2.0307	0.0647	110.957
158.145	950.00	2.0305	0.0647	111.003
158.187	950.00	2.0301	0.0647	111.047
158.228	950.00	2.0297	0.0647	111.093
158.270	950.00	2.0294	0.0647	111.141
158.312	950.01	2.0290	0.0647	111.183
158.353	950.01	2.0287	0.0647	111.216
158.395	950.01	2.0281	0.0646	111.244
158.437	950.01	2.0274	0.0646	111.270
158.478	950.02	2.0270	0.0646	111.303
158.520	950.02	2.0266	0.0646	111.336
158.562	950.02	2.0262	0.0646	111.372
158.603	950.02	2.0257	0.0646	111.409
158.645	950.02	2.0254	0.0645	111.438
158.687	950.03	2.0251	0.0645	111.466
158.728	950.03	2.0249	0.0645	111.501
158.770	950.03	2.0246	0.0645	111.537
158.812	950.03	2.0241	0.0645	111.570
158.853	950.04	2.0239	0.0645	111.603
158.895	950.04	2.0237	0.0645	111.635
158.937	950.04	2.0235	0.0645	111.670
158.978	950.04	2.0234	0.0645	111.702
159.020	950.04	2.0233	0.0645	111.734
159.062	950.04	2.0233	0.0645	111.766
159.103	950.04	2.0231	0.0645	111.792
159.145	950.05	2.0228	0.0645	111.827
159.187	950.05	2.0226	0.0645	111.869
159.228	950.05	2.0223	0.0645	111.900
159.270	950.05	2.0220	0.0644	111.929
159.312	950.05	2.0217	0.0644	111.956
159.353	950.05	2.0215	0.0644	111.976
159.395	950.06	2.0211	0.0644	111.998
159.437	950.06	2.0209	0.0644	112.024
159.478	950.06	2.0206	0.0644	112.050
159.520	950.06	2.0202	0.0644	112.075
159.562	950.06	2.0198	0.0644	112.095
159.603	950.06	2.0196	0.0644	112.112
159.645	950.06	2.0194	0.0644	112.128
159.687	950.06	2.0191	0.0643	112.143
159.728	950.07	2.0189	0.0643	112.159
159.770	950.07	2.0187	0.0643	112.179
159.812	950.07	2.0183	0.0643	112.203
159.853	950.07	2.0178	0.0643	112.228
159.895	950.07	2.0173	0.0643	112.251
159.937	950.07	2.0169	0.0643	112.271
159.978	950.07	2.0166	0.0643	112.288
160.020	950.07	2.0163	0.0643	112.305
160.062	950.07	2.0162	0.0643	112.324
160.103	950.08	2.0160	0.0642	112.349
160.145	950.08	2.0157	0.0642	112.372
160.187	950.08	2.0152	0.0642	112.387
160.228	950.08	2.0147	0.0642	112.405
160.270	950.08	2.0146	0.0642	112.419
160.312	950.08	2.0145	0.0642	112.436
160.353	950.08	2.0141	0.0642	112.453
160.395	950.08	2.0136	0.0642	112.467
160.437	950.08	2.0134	0.0642	112.483
160.478	950.09	2.0133	0.0642	112.497
160.520	950.09	2.0132	0.0642	112.510
160.562	950.09	2.0129	0.0642	112.524
160.603	950.09	2.0126	0.0641	112.540
160.645	950.09	2.0121	0.0641	112.557
160.687	950.09	2.0115	0.0641	112.575
160.728	950.09	2.0111	0.0641	112.591
160.770	950.09	2.0108	0.0641	112.602
160.812	950.09	2.0105	0.0641	112.610
160.853	950.09	2.0102	0.0641	112.620
160.895	950.10	2.0098	0.0641	112.632
160.937	950.10	2.0093	0.0640	112.649
160.978	950.10	2.0089	0.0640	112.668
161.020	950.10	2.0084	0.0640	112.686
161.062	950.10	2.0082	0.0640	112.703
161.103	950.10	2.0079	0.0640	112.717
161.145	950.10	2.0076	0.0640	112.730
161.187	950.10	2.0072	0.0640	112.747
161.228	950.10	2.0070	0.0640	112.768
161.270	950.10	2.0067	0.0640	112.786
161.312	950.10	2.0065	0.0639	112.800
161.353	950.10	2.0063	0.0639	112.810
161.395	950.10	2.0060	0.0639	112.820
161.437	950.10	2.0058	0.0639	112.832
161.478	950.10	2.0058	0.0639	112.843
161.520	950.10	2.0057	0.0639	112.855
161.562	950.11	2.0055	0.0639	112.867
161.603	950.11	2.0056	0.0639	112.878
161.645	950.11	2.0056	0.0639	112.890
161.687	950.11	2.0054	0.0639	112.898
161.728	950.11	2.0052	0.0639	112.906
161.770	950.11	2.0048	0.0639	112.917
161.812	950.11	2.0045	0.0639	112.927
161.853	950.11	2.0041	0.0639	112.935
161.895	950.11	2.0035	0.0638	112.942
161.937	950.11	2.0028	0.0638	112.950
161.978	950.11	2.0025	0.0638	112.956
162.020	950.11	2.0023	0.0638	112.964
162.062	950.11	2.0021	0.0638	112.973
162.103	950.11	2.0020	0.0638	112.983
162.145	950.11	2.0019	0.0638	112.993
162.187	950.12	2.0017	0.0638	112.999
162.228	950.12	2.0016	0.0638	113.006
162.270	950.12	2.0017	0.0638	113.014
162.312	950.12	2.0016	0.0638	113.022
162.353	950.12	2.0012	0.0638	113.030
162.395	950.12	2.0010	0.0638	113.037
162.437	950.12	2.0009	0.0638	113.045
162.478	950.12	2.0008	0.0638	113.054
162.520	950.12	2.0006	0.0638	113.066
162.562	950.12	2.0004	0.0638	113.079
162.603	950.12	2.0001	0.0637	113.091
162.645		1.9998	0.0637
162.678		1.9995	0.0637