File: example/data/SDa_3.txt
Time	Temperature	Weight	Weight	Heat Flow
min	°C	%	mg	mW
0.003		100.0155	8.2853
0.037		100.0926	8.2917
0.070	26.64	100.1326	8.2950	-22.488
0.103	26.94	100.1251	8.2944	-22.323
0.137	27.24	100.1126	8.2933	-22.175
0.170	27.54	100.0988	8.2922	-22.040
0.203	27.82	100.0838	8.2909	-21.919
0.237	28.10	100.0675	8.2896	-21.808
0.270	28.37	100.0499	8.2881	-21.704
0.303	28.64	100.0311	8.2866	-21.606
0.337	28.90	100.0109	8.2849	-21.515
0.370	29.15	99.9893	8.2831	-21.431
0.403	29.40	99.9663	8.2812	-21.352
0.437	29.64	99.9421	8.2792	-21.276
0.470	29.87	99.9168	8.2771	-21.205
0.503	30.09	99.8904	8.2749	-21.137
0.537	30.31	99.8630	8.2727	-21.073
0.570	30.53	99.8347	8.2703	-21.010
0.603	30.74	99.8057	8.2679	-20.950
0.637	30.95	99.7761	8.2655	-20.890
0.670	31.15	99.7459	8.2630	-20.832
0.703	31.35	99.7152	8.2604	-20.774
0.737	31.54	99.6840	8.2578	-20.718
0.770	31.73	99.6524	8.2552	-20.662
0.803	31.92	99.6207	8.2526	-20.608
0.837	32.11	99.5886	8.2499	-20.554
0.870	32.30	99.5563	8.2473	-20.503
0.903	32.49	99.5239	8.2446	-20.450
0.937	32.68	99.4914	8.2419	-20.399
0.970	32.88	99.4589	8.2392	-20.348
1.003	33.08	99.4265	8.2365	-20.299
1.037	33.28	99.3940	8.2338	-20.249
1.070	33.48	99.3617	8.2311	-20.197
1.103	33.69	99.3293	8.2285	-20.146
1.137	33.90	99.2970	8.2258	-20.093
1.170	34.12	99.2647	8.2231	-20.034
1.203	34.34	99.2325	8.2204	-19.976
1.237	34.57	99.2004	8.2178	-19.915
1.270	34.80	99.1682	8.2151	-19.852
1.303	35.03	99.1360	8.2124	-19.785
1.337	35.27	99.1039	8.2098	-19.715
1.370	35.52	99.0717	8.2071	-19.642
1.403	35.77	99.0394	8.2044	-19.567
1.437	36.02	99.0070	8.2017	-19.487
1.470	36.28	98.9745	8.1991	-19.404
1.503	36.55	98.9419	8.1964	-19.320
1.537	36.82	98.9093	8.1937	-19.238
1.570	37.09	98.8767	8.1910	-19.151
1.603	37.37	98.8439	8.1882	-19.060
1.637	37.66	98.8110	8.1855	-18.966
1.670	37.95	98.7780	8.1828	-18.871
1.703	38.24	98.7449	8.1800	-18.773
1.737	38.54	98.7117	8.1773	-18.671
1.770	38.84	98.6785	8.1745	-18.565
1.803	39.15	98.6452	8.1718	-18.460
1.837	39.46	98.6118	8.1690	-18.354
1.870	39.77	98.5784	8.1662	-18.246
1.903	40.09	98.5448	8.1635	-18.134
1.937	40.41	98.5112	8.1607	-18.023
1.970	40.74	98.4776	8.1579	-17.911
2.003	41.06	98.4439	8.1551	-17.796
2.037	41.39	98.4101	8.1523	-17.681
2.070	41.73	98.3762	8.1495	-17.564
2.103	42.07	98.3423	8.1467	-17.443
2.137	42.41	98.3084	8.1439	-17.322
2.170	42.75	98.2745	8.1411	-17.197
2.203	43.09	98.2405	8.1383	-17.073
2.237	43.44	98.2065	8.1354	-16.948
2.270	43.79	98.1725	8.1326	-16.821
2.303	44.14	98.1384	8.1298	-16.693
2.337	44.50	98.1043	8.1270	-16.562
2.370	44.85	98.0701	8.1241	-16.430
2.403	45.21	98.0358	8.1213	-16.295
2.437	45.57	98.0016	8.1185	-16.158
2.470	45.93	97.9675	8.1156	-16.022
2.503	46.29	97.9333	8.1128	-15.885
2.537	46.65	97.8993	8.1100	-15.747
2.570	47.01	97.8652	8.1072	-15.608
2.603	47.38	97.8311	8.1043	-15.467
2.637	47.74	97.7971	8.1015	-15.325
2.670	48.10	97.7631	8.0987	-15.183
2.703	48.47	97.7292	8.0959	-15.041
2.737	48.83	97.6953	8.0931	-14.897
2.770	49.20	97.6615	8.0903	-14.751
2.803	49.57	97.6277	8.0875	-14.605
2.837	49.93	97.5940	8.0847	-14.459
2.870	50.30	97.5604	8.0819	-14.310
2.903	50.66	97.5268	8.0791	-14.160
2.937	51.03	97.4933	8.0764	-14.010
2.970	51.39	97.4600	8.0736	-13.861
3.003	51.76	97.4268	8.0708	-13.712
3.037	52.13	97.3937	8.0681	-13.563
3.070	52.49	97.3607	8.0654	-13.413
3.103	52.86	97.3280	8.0627	-13.261
3.137	53.22	97.2955	8.0600	-13.108
3.170	53.58	97.2631	8.0573	-12.956
3.203	53.95	97.2308	8.0546	-12.803
3.237	54.31	97.1987	8.0520	-12.650
3.270	54.67	97.1669	8.0493	-12.499
3.303	55.03	97.1352	8.0467	-12.348
3.337	55.39	97.1037	8.0441	-12.193
3.370	55.75	97.0725	8.0415	-12.039
3.403	56.11	97.0415	8.0389	-11.884
3.437	56.47	97.0107	8.0364	-11.730
3.470	56.83	96.9802	8.0338	-11.577
3.503	57.19	96.9499	8.0313	-11.427
3.537	57.55	96.9199	8.0289	-11.273
3.570	57.90	96.8901	8.0264	-11.120
3.603	58.26	96.8606	8.0239	-10.967
3.637	58.61	96.8313	8.0215	-10.814
3.670	58.97	96.8024	8.0191	-10.661
3.703	59.32	96.7737	8.0167	-10.507
3.737	59.67	96.7453	8.0144	-10.355
3.770	60.03	96.7172	8.0121	-10.206
3.803	60.38	96.6894	8.0098	-10.054
3.837	60.73	96.6618	8.0075	-9.902
3.870	61.08	96.6346	8.0052	-9.753
3.903	61.43	96.6076	8.0030	-9.605
3.937	61.78	96.5809	8.0008	-9.457
3.970	62.13	96.5544	7.9986	-9.309
4.003	62.47	96.5283	7.9964	-9.158
4.037	62.82	96.5024	7.9943	-9.010
4.070	63.17	96.4768	7.9921	-8.864
4.103	63.52	96.4515	7.9900	-8.718
4.137	63.86	96.4264	7.9880	-8.568
4.170	64.21	96.4017	7.9859	-8.423
4.203	64.55	96.3773	7.9839	-8.279
4.237	64.90	96.3533	7.9819	-8.137
4.270	65.24	96.3294	7.9799	-7.993
4.303	65.59	96.3060	7.9780	-7.850
4.337	65.93	96.2828	7.9761	-7.707
4.370	66.28	96.2599	7.9742	-7.564
4.403	66.62	96.2373	7.9723	-7.422
4.437	66.96	96.2150	7.9705	-7.280
4.470	67.30	96.1930	7.9686	-7.139
4.503	67.65	96.1712	7.9668	-6.998
4.537	67.99	96.1497	7.9650	-6.860
4.570	68.33	96.1284	7.9633	-6.722
4.603	68.67	96.1075	7.9616	-6.586
4.637	69.01	96.0869	7.9598	-6.447
4.670	69.36	96.0665	7.9582	-6.309
4.703	69.70	96.0464	7.9565	-6.173
4.737	70.04	96.0266	7.9549	-6.039
4.770	70.38	96.0069	7.9532	-5.906
4.803	70.72	95.9876	7.9516	-5.774
4.837	71.06	95.9684	7.9500	-5.641
4.870	71.41	95.9496	7.9485	-5.510
4.903	71.75	95.9310	7.9469	-5.381
4.937	72.09	95.9127	7.9454	-5.250
4.970	72.43	95.8947	7.9439	-5.122
5.003	72.77	95.8769	7.9424	-4.992
5.037	73.11	95.8593	7.9410	-4.865
5.070	73.46	95.8419	7.9395	-4.735
5.103	73.80	95.8247	7.9381	-4.607
5.137	74.14	95.8078	7.9367	-4.480
5.170	74.48	95.7911	7.9353	-4.355
5.203	74.82	95.7747	7.9340	-4.232
5.237	75.16	95.7585	7.9326	-4.109
5.270	75.50	95.7426	7.9313	-3.986
5.303	75.85	95.7269	7.9300	-3.865
5.337	76.19	95.7115	7.9287	-3.741
5.370	76.53	95.6963	7.9275	-3.618
5.403	76.87	95.6812	7.9262	-3.496
5.437	77.21	95.6664	7.9250	-3.377
5.470	77.56	95.6518	7.9238	-3.257
5.503	77.90	95.6374	7.9226	-3.139
5.537	78.24	95.6233	7.9214	-3.020
5.570	78.59	95.6093	7.9203	-2.904
5.603	78.93	95.5956	7.9191	-2.788
5.637	79.28	95.5820	7.9180	-2.673
5.670	79.62	95.5687	7.9169	-2.559
5.703	79.96	95.5555	7.9158	-2.444
5.737	80.31	95.5424	7.9147	-2.329
5.770	80.65	95.5296	7.9137	-2.218
5.803	80.99	95.5169	7.9126	-2.108
5.837	81.34	95.5045	7.9116	-1.997
5.870	81.68	95.4923	7.9106	-1.882
5.903	82.03	95.4802	7.9096	-1.769
5.937	82.37	95.4684	7.9086	-1.659
5.970	82.72	95.4568	7.9076	-1.549
6.003	83.07	95.4454	7.9067	-1.440
6.037	83.41	95.4341	7.9058	-1.331
6.070	83.76	95.4230	7.9049	-1.225
6.103	84.10	95.4120	7.9039	-1.119
6.137	84.45	95.4011	7.9030	-1.013
6.170	84.79	95.3905	7.9022	-0.905
6.203	85.14	95.3800	7.9013	-0.798
6.237	85.49	95.3697	7.9004	-0.692
6.270	85.83	95.3596	7.8996	-0.586
6.303	86.18	95.3496	7.8988	-0.482
6.337	86.53	95.3398	7.8980	-0.379
6.370	86.87	95.3301	7.8972	-0.274
6.403	87.22	95.3206	7.8964	-0.171
6.437	87.57	95.3113	7.8956	-0.070
6.470	87.91	95.3022	7.8948	0.033
6.503	88.26	95.2932	7.8941	0.132
6.537	88.61	95.2844	7.8934	0.230
6.570	88.95	95.2758	7.8927	0.330
6.603	89.30	95.2672	7.8919	0.429
6.637	89.65	95.2588	7.8913	0.529
6.670	89.99	95.2506	7.8906	0.626
6.703	90.34	95.2424	7.8899	0.722
6.737	90.69	95.2344	7.8892	0.818
6.770	91.03	95.2266	7.8886	0.914
6.803	91.38	95.2190	7.8879	1.009
6.837	91.73	95.2114	7.8873	1.104
6.870	92.07	95.2039	7.8867	1.199
6.903	92.42	95.1965	7.8861	1.295
6.937	92.77	95.1891	7.8855	1.389
6.970	93.11	95.1819	7.8849	1.482
7.003	93.46	95.1749	7.8843	1.574
7.037	93.81	95.1680	7.8837	1.665
7.070	94.15	95.1613	7.8832	1.757
7.103	94.50	95.1547	7.8826	1.849
7.137	94.84	95.1482	7.8821	1.939
7.170	95.19	95.1419	7.8816	2.028
7.203	95.54	95.1358	7.8811	2.119
7.237	95.89	95.1298	7.8806	2.207
7.270	96.23	95.1238	7.8801	2.297
7.303	96.58	95.1180	7.8796	2.386
7.337	96.92	95.1122	7.8791	2.473
7.370	97.27	95.1065	7.8786	2.558
7.403	97.62	95.1010	7.8782	2.646
7.437	97.96	95.0955	7.8777	2.735
7.470	98.31	95.0902	7.8773	2.822
7.503	98.65	95.0850	7.8769	2.904
7.537	99.00	95.0799	7.8764	2.989
7.570	99.35	95.0749	7.8760	3.075
7.603	99.69	95.0700	7.8756	3.160
7.637	100.04	95.0653	7.8752	3.240
7.670	100.38	95.0606	7.8748	3.321
7.703	100.73	95.0561	7.8745	3.403
7.737	101.07	95.0516	7.8741	3.488
7.770	101.42	95.0471	7.8737	3.570
7.803	101.76	95.0428	7.8734	3.650
7.837	102.11	95.0385	7.8730	3.731
7.870	102.45	95.0344	7.8727	3.813
7.903	102.80	95.0303	7.8723	3.892
7.937	103.14	95.0263	7.8720	3.968
7.970	103.49	95.0225	7.8717	4.044
8.003	103.83	95.0187	7.8714	4.120
8.037	104.18	95.0151	7.8711	4.196
8.070	104.52	95.0115	7.8708	4.273
8.103	104.86	95.0081	7.8705	4.351
8.137	105.21	95.0046	7.8702	4.431
8.170	105.55	95.0013	7.8699	4.508
8.203	105.90	94.9980	7.8696	4.584
8.237	106.24	94.9949	7.8694	4.659
8.245	106.33	94.9941	7.8693	4.677

[step]
Isothermal 30.0 min
Time	Temperature	Weight	Weight	Heat Flow
min	°C	%	mg	mW
8.253	106.41	94.9933	7.8693	4.695
8.362	107.53	94.9836	7.8685	4.940
8.470	108.61	94.9747	7.8677	5.209
8.578	109.62	94.9660	7.8670	5.522
8.687	110.53	94.9578	7.8663	5.875
8.795	111.33	94.9500	7.8657	6.242
8.903	112.01	94.9427	7.8651	6.623
9.012	112.56	94.9359	7.8645	7.014
9.120	112.98	94.9296	7.8640	7.394
9.228	113.27	94.9237	7.8635	7.740
9.337	113.45	94.9181	7.8630	8.045
9.445	113.54	94.9131	7.8626	8.304
9.553	113.54	94.9085	7.8622	8.512
9.662	113.48	94.9043	7.8619	8.680
9.770	113.35	94.9002	7.8615	8.809
9.878	113.18	94.8963	7.8612	8.885
9.987	113.00	94.8930	7.8609	8.917
10.095	112.82	94.8902	7.8607	8.927
10.203	112.63	94.8883	7.8606	8.919
10.312	112.46	94.8865	7.8604	8.877
10.420	112.30	94.8849	7.8603	8.820
10.528	112.16	94.8836	7.8602	8.757
10.637	112.05	94.8824	7.8601	8.690
10.745	111.96	94.8815	7.8600	8.623
10.853	111.89	94.8807	7.8599	8.558
10.962	111.85	94.8801	7.8599	8.500
11.070	111.83	94.8794	7.8598	8.445
11.178	111.83	94.8786	7.8597	8.404
11.287	111.85	94.8783	7.8597	8.370
11.395	111.89	94.8779	7.8597	8.344
11.503	111.94	94.8775	7.8597	8.323
11.612	112.01	94.8772	7.8596	8.308
11.720	112.08	94.8770	7.8596	8.301
11.828	112.16	94.8766	7.8596	8.299
11.937	112.25	94.8762	7.8596	8.301
12.045	112.33	94.8760	7.8595	8.309
12.153	112.41	94.8758	7.8595	8.321
12.262	112.49	94.8755	7.8595	8.340
12.370	112.57	94.8754	7.8595	8.362
12.478	112.64	94.8754	7.8595	8.386
12.587	112.71	94.8754	7.8595	8.412
12.695	112.76	94.8749	7.8594	8.445
12.803	112.82	94.8744	7.8594	8.468
12.912	112.86	94.8742	7.8594	8.489
13.020	112.90	94.8739	7.8594	8.514
13.128	112.93	94.8735	7.8593	8.540
13.237	112.96	94.8732	7.8593	8.555
13.345	112.98	94.8730	7.8593	8.570
13.453	112.99	94.8729	7.8593	8.585
13.562	113.00	94.8727	7.8593	8.598
13.670	113.01	94.8726	7.8593	8.609
13.778	113.01	94.8727	7.8593	8.617
13.887	113.02	94.8726	7.8593	8.622
13.995	113.02	94.8723	7.8592	8.626
14.103	113.02	94.8721	7.8592	8.628
14.212	113.01	94.8719	7.8592	8.630
14.320	113.01	94.8716	7.8592	8.630
14.428	113.01	94.8714	7.8592	8.629
14.537	113.01	94.8712	7.8591	8.628
14.645	113.01	94.8712	7.8591	8.625
14.753	113.01	94.8713	7.8591	8.623
14.862	113.01	94.8713	7.8591	8.622
14.970	113.01	94.8711	7.8591	8.619
15.078	113.02	94.8712	7.8591	8.616
15.187	113.02	94.8712	7.8591	8.614
15.295	113.03	94.8712	7.8591	8.612
15.403	113.04	94.8711	7.8591	8.608
15.512	113.04	94.8710	7.8591	8.606
15.620	113.05	94.8709	7.8591	8.605
15.728	113.06	94.8708	7.8591	8.604
15.837	113.07	94.8710	7.8591	8.603
15.945	113.08	94.8711	7.8591	8.603
16.053	113.09	94.8711	7.8591	8.604
16.162	113.09	94.8711	7.8591	8.604
16.270	113.10	94.8709	7.8591	8.602
16.378	113.11	94.8708	7.8591	8.601
16.487	113.12	94.8709	7.8591	8.602
16.595	113.12	94.8710	7.8591	8.603
16.703	113.13	94.8709	7.8591	8.603
16.812	113.13	94.8709	7.8591	8.604
16.920	113.14	94.8710	7.8591	8.605
17.028	113.14	94.8710	7.8591	8.605
17.137	113.15	94.8710	7.8591	8.605
17.245	113.15	94.8711	7.8591	8.605
17.353	113.15	94.8711	7.8591	8.605
17.462	113.15	94.8711	7.8591	8.604
17.570	113.16	94.8712	7.8591	8.604
17.678	113.16	94.8714	7.8592	8.605
17.787	113.16	94.8714	7.8592	8.604
17.895	113.16	94.8715	7.8592	8.604
18.003	113.16	94.8716	7.8592	8.604
18.112	113.16	94.8716	7.8592	8.604
18.220	113.16	94.8715	7.8592	8.602
18.328	113.16	94.8714	7.8592	8.601
18.437	113.16	94.8711	7.8591	8.600
18.545	113.17	94.8709	7.8591	8.600
18.653	113.16	94.8710	7.8591	8.599
18.762	113.16	94.8712	7.8591	8.597
18.870	113.17	94.8713	7.8591	8.597
18.978	113.17	94.8714	7.8592	8.595
19.087	113.17	94.8715	7.8592	8.594
19.195	113.17	94.8717	7.8592	8.591
19.303	113.17	94.8718	7.8592	8.588
19.412	113.17	94.8717	7.8592	8.587
19.520	113.17	94.8716	7.8592	8.587
19.628	113.17	94.8716	7.8592	8.585
19.737	113.17	94.8717	7.8592	8.585
19.845	113.17	94.8717	7.8592	8.582
19.953	113.17	94.8716	7.8592	8.580
20.062	113.17	94.8717	7.8592	8.577
20.170	113.17	94.8719	7.8592	8.576
20.278	113.17	94.8720	7.8592	8.575
20.387	113.17	94.8719	7.8592	8.574
20.495	113.18	94.8719	7.8592	8.575
20.603	113.17	94.8720	7.8592	8.574
20.712	113.17	94.8719	7.8592	8.572
20.820	113.17	94.8719	7.8592	8.572
20.928	113.18	94.8719	7.8592	8.570
21.037	113.18	94.8721	7.8592	8.569
21.145	113.17	94.8722	7.8592	8.568
21.253	113.17	94.8721	7.8592	8.566
21.362	113.17	94.8722	7.8592	8.565
21.470	113.18	94.8720	7.8592	8.562
21.578	113.17	94.8720	7.8592	8.560
21.687	113.17	94.8721	7.8592	8.558
21.795	113.17	94.8721	7.8592	8.557
21.903	113.17	94.8721	7.8592	8.557
22.012	113.17	94.8723	7.8592	8.556
22.120	113.17	94.8724	7.8592	8.556
22.228	113.17	94.8725	7.8592	8.555
22.337	113.17	94.8727	7.8593	8.553
22.445	113.17	94.8728	7.8593	8.552
22.553	113.17	94.8729	7.8593	8.552
22.662	113.17	94.8728	7.8593	8.551
22.770	113.17	94.8729	7.8593	8.549
22.878	113.17	94.8729	7.8593	8.547
22.987	113.17	94.8731	7.8593	8.545
23.095	113.17	94.8731	7.8593	8.543
23.203	113.17	94.8731	7.8593	8.541
23.312	113.17	94.8731	7.8593	8.541
23.420	113.17	94.8731	7.8593	8.540
23.528	113.17	94.8732	7.8593	8.538
23.637	113.17	94.8733	7.8593	8.537
23.745	113.17	94.8734	7.8593	8.538
23.853	113.17	94.8734	7.8593	8.535
23.962	113.17	94.8734	7.8593	8.535
24.070	113.17	94.8735	7.8593	8.534
24.178	113.17	94.8735	7.8593	8.532
24.287	113.17	94.8737	7.8593	8.531
24.395	113.17	94.8738	7.8594	8.530
24.503	113.17	94.8740	7.8594	8.527
24.612	113.17	94.8741	7.8594	8.525
24.720	113.17	94.8742	7.8594	8.523
24.828	113.17	94.8744	7.8594	8.521
24.937	113.17	94.8744	7.8594	8.520
25.045	113.17	94.8744	7.8594	8.520
25.153	113.17	94.8745	7.8594	8.519
25.262	113.17	94.8744	7.8594	8.518
25.370	113.17	94.8744	7.8594	8.517
25.478	113.17	94.8743	7.8594	8.516
25.587	113.17	94.8744	7.8594	8.514
25.695	113.17	94.8746	7.8594	8.513
25.803	113.17	94.8746	7.8594	8.510
25.912	113.17	94.8747	7.8594	8.512
26.020	113.17	94.8748	7.8594	8.512
26.128	113.17	94.8749	7.8594	8.510
26.237	113.17	94.8749	7.8594	8.509
26.345	113.16	94.8750	7.8595	8.507
26.453	113.16	94.8753	7.8595	8.504
26.562	113.16	94.8754	7.8595	8.502
26.670	113.16	94.8754	7.8595	8.500
26.778	113.16	94.8754	7.8595	8.498
26.887	113.16	94.8754	7.8595	8.496
26.995	113.16	94.8754	7.8595	8.495
27.103	113.16	94.8756	7.8595	8.494
27.212	113.16	94.8757	7.8595	8.495
27.320	113.16	94.8756	7.8595	8.493
27.428	113.16	94.8758	7.8595	8.491
27.537	113.16	94.8767	7.8596	8.487
27.645	113.16	94.8735	7.8593	8.486
27.753	113.16	94.8716	7.8592	8.484
27.862	113.16	94.8704	7.8591	8.483
27.970	113.16	94.8697	7.8590	8.482
28.078	113.16	94.8694	7.8590	8.480
28.187	113.16	94.8692	7.8590	8.479
28.295	113.16	94.8689	7.8589	8.478
28.403	113.16	94.8690	7.8590	8.477
28.512	113.16	94.8690	7.8590	8.476
28.620	113.16	94.8689	7.8590	8.476
28.728	113.16	94.8691	7.8590	8.477
28.837	113.16	94.8691	7.8590	8.477
28.945	113.16	94.8691	7.8590	8.476
29.053	113.16	94.8691	7.8590	8.474
29.162	113.16	94.8693	7.8590	8.474
29.270	113.16	94.8695	7.8590	8.473
29.378	113.16	94.8697	7.8590	8.470
29.487	113.16	94.8700	7.8590	8.469
29.595	113.16	94.8699	7.8590	8.468
29.703	113.16	94.8699	7.8590	8.466
29.812	113.16	94.8700	7.8590	8.465
29.920	113.16	94.8702	7.8591	8.459
30.028	113.15	94.8702	7.8591	8.458
30.137	113.15	94.8704	7.8591	8.457
30.245	113.15	94.8703	7.8591	8.455
30.353	113.15	94.8704	7.8591	8.454
30.462	113.15	94.8705	7.8591	8.453
30.570	113.15	94.8707	7.8591	8.452
30.678	113.15	94.8708	7.8591	8.452
30.787	113.15	94.8707	7.8591	8.453
30.895	113.15	94.8709	7.8591	8.450
31.003	113.15	94.8710	7.8591	8.449
31.112	113.15	94.8711	7.8591	8.447
31.220	113.15	94.8709	7.8591	8.447
31.328	113.15	94.8708	7.8591	8.447
31.437	113.15	94.8710	7.8591	8.446
31.545	113.15	94.8710	7.8591	8.446
31.653	113.15	94.8712	7.8591	8.447
31.762	113.15	94.8711	7.8591	8.448
31.870	113.15	94.8711	7.8591	8.447
31.978	113.15	94.8713	7.8591	8.446
32.087	113.15	94.8713	7.8591	8.445
32.195	113.15	94.8713	7.8591	8.443
32.303	113.15	94.8714	7.8592	8.441
32.412	113.15	94.8716	7.8592	8.440
32.520	113.15	94.8715	7.8592	8.439
32.628	113.15	94.8715	7.8592	8.437
32.737	113.15	94.8716	7.8592	8.436
32.845	113.15	94.8717	7.8592	8.436
32.953	113.15	94.8719	7.8592	8.434
33.062	113.15	94.8719	7.8592	8.432
33.170	113.15	94.8721	7.8592	8.431
33.278	113.15	94.8720	7.8592	8.434
33.387	113.15	94.8720	7.8592	8.434
33.495	113.15	94.8721	7.8592	8.434
33.603	113.15	94.8722	7.8592	8.435
33.712	113.15	94.8721	7.8592	8.434
33.820	113.15	94.8724	7.8592	8.433
33.928	113.15	94.8725	7.8592	8.431
34.037	113.15	94.8725	7.8592	8.430
34.145	113.15	94.8723	7.8592	8.428
34.253	113.15	94.8723	7.8592	8.426
34.362	113.15	94.8726	7.8593	8.426
34.470	113.15	94.8726	7.8593	8.426
34.578	113.15	94.8727	7.8593	8.424
34.687	113.15	94.8728	7.8593	8.424
34.795	113.15	94.8729	7.8593	8.423
34.903	113.15	94.8731	7.8593	8.423
[...]
203.770	947.88	-0.1061	-0.0088	20.421
203.887	947.98	-0.1064	-0.0088	21.654
204.003	948.08	-0.1064	-0.0088	22.792
204.120	948.17	-0.1067	-0.0088	23.830
204.237	948.25	-0.1069	-0.0089	24.773
204.353	948.33	-0.1072	-0.0089	25.652
204.470	948.41	-0.1074	-0.0089	26.464
204.587	948.48	-0.1076	-0.0089	27.225
204.703	948.54	-0.1077	-0.0089	27.898
204.820	948.61	-0.1080	-0.0089	28.523
204.937	948.67	-0.1082	-0.0090	29.094
205.053	948.72	-0.1087	-0.0090	29.632
205.170	948.78	-0.1092	-0.0090	30.117
205.287	948.82	-0.1098	-0.0091	30.560
205.403	948.87	-0.1104	-0.0091	30.961
205.520	948.92	-0.1110	-0.0092	31.333
205.637	948.96	-0.1114	-0.0092	31.657
205.753	949.00	-0.1115	-0.0092	31.961
205.870	949.03	-0.1118	-0.0093	32.236
205.987	949.07	-0.1121	-0.0093	32.522
206.103	949.10	-0.1125	-0.0093	32.734
206.220	949.14	-0.1129	-0.0094	32.964
206.337	949.16	-0.1133	-0.0094	33.157
206.453	949.19	-0.1140	-0.0094	33.346
206.570	949.22	-0.1144	-0.0095	33.481
206.687	949.25	-0.1149	-0.0095	33.609
206.803	949.27	-0.1155	-0.0096	33.731
206.920	949.29	-0.1160	-0.0096	33.847
207.037	949.31	-0.1164	-0.0096	33.958
207.153	949.33	-0.1169	-0.0097	34.073
207.270	949.35	-0.1175	-0.0097	34.150
207.387	949.37	-0.1179	-0.0098	34.213
207.503	949.39	-0.1183	-0.0098	34.268
207.620	949.40	-0.1187	-0.0098	34.330
207.737	949.42	-0.1192	-0.0099	34.407
207.853	949.43	-0.1195	-0.0099	34.452
207.970	949.45	-0.1199	-0.0099	34.490
208.087	949.46	-0.1204	-0.0100	34.522
208.203	949.47	-0.1210	-0.0100	34.557
208.320	949.48	-0.1214	-0.0101	34.582
208.437	949.49	-0.1217	-0.0101	34.603
208.553	949.50	-0.1221	-0.0101	34.624
208.670	949.52	-0.1224	-0.0101	34.640
208.787	949.52	-0.1229	-0.0102	34.650
208.903	949.53	-0.1236	-0.0102	34.649
209.020	949.54	-0.1239	-0.0103	34.652
209.137	949.55	-0.1245	-0.0103	34.648
209.253	949.56	-0.1250	-0.0104	34.642
209.370	949.56	-0.1255	-0.0104	34.633
209.487	949.57	-0.1261	-0.0104	34.623
209.603	949.58	-0.1266	-0.0105	34.620
209.720	949.58	-0.1271	-0.0105	34.626
209.837	949.59	-0.1277	-0.0106	34.614
209.953	949.59	-0.1281	-0.0106	34.610
210.070	949.60	-0.1287	-0.0107	34.603
210.187	949.60	-0.1290	-0.0107	34.592
210.303	949.61	-0.1294	-0.0107	34.584
210.420	949.61	-0.1299	-0.0108	34.573
210.537	949.61	-0.1304	-0.0108	34.562
210.653	949.62	-0.1308	-0.0108	34.548
210.770	949.62	-0.1313	-0.0109	34.538
210.887	949.62	-0.1316	-0.0109	34.533
211.003	949.63	-0.1321	-0.0109	34.523
211.120	949.63	-0.1326	-0.0110	34.515
211.237	949.63	-0.1332	-0.0110	34.502
211.353	949.63	-0.1337	-0.0111	34.478
211.470	949.64	-0.1341	-0.0111	34.462
211.587	949.64	-0.1346	-0.0111	34.446
211.703	949.64	-0.1349	-0.0112	34.436
211.820	949.64	-0.1354	-0.0112	34.410
211.937	949.65	-0.1358	-0.0113	34.384
212.053	949.65	-0.1365	-0.0113	34.364
212.170	949.65	-0.1367	-0.0113	34.335
212.287	949.65	-0.1371	-0.0114	34.315
212.403	949.65	-0.1376	-0.0114	34.304
212.520	949.65	-0.1379	-0.0114	34.300
212.637	949.65	-0.1383	-0.0115	34.276
212.753	949.65	-0.1387	-0.0115	34.256
212.870	949.66	-0.1394	-0.0115	34.231
212.987	949.66	-0.1401	-0.0116	34.216
213.103	949.66	-0.1407	-0.0117	34.197
213.220	949.66	-0.1412	-0.0117	34.182
213.337	949.66	-0.1417	-0.0117	34.167
213.453	949.66	-0.1422	-0.0118	34.162
213.570	949.66	-0.1427	-0.0118	34.143
213.687	949.66	-0.1433	-0.0119	34.138
213.803	949.66	-0.1437	-0.0119	34.133
213.920	949.66	-0.1442	-0.0119	34.119
214.037	949.66	-0.1445	-0.0120	34.097
214.153	949.66	-0.1449	-0.0120	34.071
214.270	949.66	-0.1453	-0.0120	34.048
214.387	949.66	-0.1458	-0.0121	34.035
214.503	949.66	-0.1463	-0.0121	34.022
214.620	949.66	-0.1468	-0.0122	34.008
214.737	949.66	-0.1472	-0.0122	34.005
214.853	949.66	-0.1476	-0.0122	34.000
214.970	949.66	-0.1480	-0.0123	33.993
215.087	949.66	-0.1483	-0.0123	33.993
215.203	949.66	-0.1488	-0.0123	33.983
215.320	949.66	-0.1492	-0.0124	33.973
215.437	949.66	-0.1498	-0.0124	33.963
215.553	949.66	-0.1503	-0.0125	33.955
215.670	949.66	-0.1509	-0.0125	33.947
215.787	949.66	-0.1514	-0.0125	33.935
215.903	949.66	-0.1521	-0.0126	33.921
216.020	949.66	-0.1526	-0.0126	33.905
216.137	949.66	-0.1530	-0.0127	33.894
216.253	949.66	-0.1532	-0.0127	33.875
216.370	949.66	-0.1536	-0.0127	33.878
216.487	949.66	-0.1540	-0.0128	33.882
216.603	949.66	-0.1545	-0.0128	33.881
216.720	949.66	-0.1551	-0.0128	33.876
216.837	949.66	-0.1555	-0.0129	33.868
216.953	949.66	-0.1559	-0.0129	33.862
217.070	949.66	-0.1564	-0.0130	33.858
217.187	949.66	-0.1570	-0.0130	33.853
217.303	949.66	-0.1575	-0.0130	33.851
217.420	949.66	-0.1578	-0.0131	33.854
217.537	949.66	-0.1581	-0.0131	33.853
217.653	949.66	-0.1587	-0.0132	33.846
217.770	949.66	-0.1594	-0.0132	33.840
217.887	949.66	-0.1599	-0.0132	33.836
218.003	949.66	-0.1603	-0.0133	33.832
218.120	949.66	-0.1607	-0.0133	33.832
218.237	949.66	-0.1613	-0.0134	33.834
218.353	949.66	-0.1617	-0.0134	33.830
218.470	949.66	-0.1624	-0.0135	33.830
218.587	949.66	-0.1630	-0.0135	33.828
218.703	949.66	-0.1635	-0.0135	33.817
218.820	949.66	-0.1639	-0.0136	33.816
218.937	949.66	-0.1643	-0.0136	33.810
219.053	949.66	-0.1648	-0.0137	33.807
219.170	949.66	-0.1652	-0.0137	33.806
219.287	949.66	-0.1660	-0.0138	33.804
219.403	949.66	-0.1665	-0.0138	33.794
219.520	949.66	-0.1669	-0.0138	33.793
219.637	949.66	-0.1673	-0.0139	33.791
219.753	949.66	-0.1678	-0.0139	33.793
219.870	949.66	-0.1682	-0.0139	33.797
219.987	949.66	-0.1687	-0.0140	33.800
220.103	949.66	-0.1691	-0.0140	33.796
220.220	949.66	-0.1696	-0.0141	33.781
220.337	949.66	-0.1702	-0.0141	33.778
220.453	949.66	-0.1708	-0.0141	33.781
220.570	949.65	-0.1713	-0.0142	33.787
220.687	949.66	-0.1716	-0.0142	33.789
220.803	949.66	-0.1723	-0.0143	33.781
220.920	949.65	-0.1731	-0.0143	33.777
221.037	949.65	-0.1737	-0.0144	33.784
221.153	949.65	-0.1744	-0.0144	33.789
221.270	949.65	-0.1748	-0.0145	33.791
221.387	949.65	-0.1753	-0.0145	33.798
221.503	949.65	-0.1756	-0.0145	33.792
221.620	949.65	-0.1762	-0.0146	33.792
221.737	949.65	-0.1765	-0.0146	33.798
221.853	949.65	-0.1769	-0.0147	33.790
221.970	949.65	-0.1775	-0.0147	33.786
222.087	949.65	-0.1780	-0.0147	33.788
222.203	949.65	-0.1785	-0.0148	33.802
222.320	949.65	-0.1787	-0.0148	33.808
222.437	949.65	-0.1792	-0.0148	33.816
222.553	949.65	-0.1797	-0.0149	33.814
222.670	949.65	-0.1802	-0.0149	33.818
222.787	949.65	-0.1807	-0.0150	33.811
222.903	949.65	-0.1812	-0.0150	33.812
223.020	949.65	-0.1818	-0.0151	33.810
223.137	949.65	-0.1823	-0.0151	33.807
223.253	949.65	-0.1827	-0.0151	33.797
223.370	949.65	-0.1831	-0.0152	33.798
223.487	949.65	-0.1835	-0.0152	33.801
223.603	949.65	-0.1839	-0.0152	33.805
223.720	949.65	-0.1844	-0.0153	33.812
223.837	949.65	-0.1850	-0.0153	33.810
223.953	949.65	-0.1855	-0.0154	33.811
224.070	949.65	-0.1863	-0.0154	33.808
224.187	949.65	-0.1870	-0.0155	33.803
224.303	949.65	-0.1876	-0.0155	33.806
224.420	949.65	-0.1880	-0.0156	33.809
224.537	949.65	-0.1884	-0.0156	33.810
224.653	949.65	-0.1890	-0.0157	33.812
224.770	949.65	-0.1892	-0.0157	33.822
224.887	949.65	-0.1897	-0.0157	33.829
225.003	949.65	-0.1902	-0.0158	33.828
225.120	949.65	-0.1905	-0.0158	33.831
225.237	949.65	-0.1909	-0.0158	33.835
225.353	949.65	-0.1912	-0.0158	33.841
225.470	949.65	-0.1918	-0.0159	33.842
225.587	949.65	-0.1924	-0.0159	33.837
225.703	949.65	-0.1930	-0.0160	33.837
225.820	949.65	-0.1936	-0.0160	33.837
225.937	949.65	-0.1941	-0.0161	33.831
226.053	949.65	-0.1945	-0.0161	33.832
226.170	949.65	-0.1950	-0.0162	33.829
226.287	949.65	-0.1955	-0.0162	33.832
226.403	949.65	-0.1958	-0.0162	33.849
226.520	949.65	-0.1964	-0.0163	33.853
226.637	949.65	-0.1967	-0.0163	33.853
226.753	949.65	-0.1971	-0.0163	33.854
226.870	949.65	-0.1976	-0.0164	33.860
226.987	949.65	-0.1980	-0.0164	33.872
227.103	949.65	-0.1985	-0.0164	33.884
227.220	949.65	-0.1991	-0.0165	33.893
227.337	949.65	-0.1995	-0.0165	33.889
227.453	949.65	-0.2000	-0.0166	33.894
227.570	949.65	-0.2006	-0.0166	33.901
227.687	949.65	-0.2012	-0.0167	33.907
227.803	949.65	-0.2016	-0.0167	33.914
227.920	949.65	-0.2020	-0.0167	33.920
228.037	949.65	-0.2025	-0.0168	33.923
228.153	949.65	-0.2030	-0.0168	33.919
228.270	949.65	-0.2037	-0.0169	33.909
228.387	949.65	-0.2043	-0.0169	33.907
228.503	949.65	-0.2048	-0.0170	33.915
228.620	949.65	-0.2055	-0.0170	33.919
228.737	949.65	-0.2060	-0.0171	33.922
228.853	949.65	-0.2064	-0.0171	33.921
228.970	949.65	-0.2068	-0.0171	33.927
229.087	949.65	-0.2072	-0.0172	33.931
229.203	949.65	-0.2076	-0.0172	33.937
229.320	949.65	-0.2081	-0.0172	33.940
229.437	949.65	-0.2086	-0.0173	33.949
229.553	949.65	-0.2090	-0.0173	33.950
229.670	949.65	-0.2094	-0.0173	33.949
229.787	949.65	-0.2098	-0.0174	33.952
229.903	949.65	-0.2101	-0.0174	33.956
230.020	949.65	-0.2107	-0.0175	33.954
230.137		-0.2113	-0.0175
230.145		-0.2114	-0.0175