File: example/data/SDb_2.txt
Time	Temperature	Weight	Weight	Heat Flow
min	°C	%	mg	mW
0.003		100.0132	5.6265
0.037		100.1295	5.6331
0.070	25.71	100.2356	5.6391	-22.279
0.103	26.03	100.2643	5.6407	-22.120
0.137	26.34	100.2616	5.6405	-21.974
0.170	26.65	100.2547	5.6401	-21.840
0.203	26.95	100.2412	5.6394	-21.713
0.237	27.24	100.2196	5.6382	-21.595
0.270	27.53	100.1950	5.6368	-21.486
0.303	27.81	100.1670	5.6352	-21.385
0.337	28.08	100.1361	5.6335	-21.287
0.370	28.35	100.1024	5.6316	-21.193
0.403	28.61	100.0662	5.6295	-21.103
0.437	28.86	100.0277	5.6274	-21.019
0.470	29.11	99.9872	5.6251	-20.937
0.503	29.35	99.9450	5.6227	-20.859
0.537	29.58	99.9014	5.6203	-20.782
0.570	29.81	99.8566	5.6177	-20.706
0.603	30.03	99.8108	5.6152	-20.631
0.637	30.25	99.7642	5.6125	-20.556
0.670	30.46	99.7170	5.6099	-20.482
0.703	30.67	99.6694	5.6072	-20.410
0.737	30.87	99.6215	5.6045	-20.338
0.770	31.07	99.5734	5.6018	-20.264
0.803	31.27	99.5255	5.5991	-20.191
0.837	31.47	99.4777	5.5964	-20.120
0.870	31.66	99.4302	5.5938	-20.048
0.903	31.85	99.3830	5.5911	-19.976
0.937	32.04	99.3361	5.5885	-19.904
0.970	32.23	99.2896	5.5858	-19.832
1.003	32.43	99.2437	5.5833	-19.759
1.037	32.63	99.1985	5.5807	-19.685
1.070	32.83	99.1540	5.5782	-19.606
1.103	33.03	99.1101	5.5757	-19.526
1.137	33.24	99.0669	5.5733	-19.445
1.170	33.45	99.0243	5.5709	-19.365
1.203	33.67	98.9821	5.5685	-19.283
1.237	33.89	98.9404	5.5662	-19.198
1.270	34.12	98.8992	5.5639	-19.108
1.303	34.35	98.8585	5.5616	-19.016
1.337	34.58	98.8182	5.5593	-18.923
1.370	34.82	98.7783	5.5571	-18.828
1.403	35.07	98.7387	5.5548	-18.732
1.437	35.32	98.6994	5.5526	-18.631
1.470	35.57	98.6605	5.5504	-18.528
1.503	35.83	98.6218	5.5483	-18.424
1.537	36.09	98.5834	5.5461	-18.316
1.570	36.36	98.5453	5.5440	-18.206
1.603	36.64	98.5076	5.5418	-18.094
1.637	36.92	98.4701	5.5397	-17.980
1.670	37.20	98.4328	5.5376	-17.866
1.703	37.49	98.3958	5.5356	-17.746
1.737	37.78	98.3591	5.5335	-17.625
1.770	38.08	98.3225	5.5314	-17.503
1.803	38.38	98.2861	5.5294	-17.378
1.837	38.69	98.2499	5.5274	-17.250
1.870	39.00	98.2140	5.5253	-17.120
1.903	39.32	98.1782	5.5233	-16.988
1.937	39.63	98.1427	5.5213	-16.858
1.970	39.96	98.1073	5.5193	-16.724
2.003	40.28	98.0721	5.5173	-16.587
2.037	40.61	98.0371	5.5154	-16.447
2.070	40.94	98.0023	5.5134	-16.306
2.103	41.28	97.9675	5.5115	-16.164
2.137	41.62	97.9329	5.5095	-16.019
2.170	41.96	97.8985	5.5076	-15.874
2.203	42.30	97.8642	5.5057	-15.727
2.237	42.65	97.8303	5.5037	-15.576
2.270	43.00	97.7966	5.5018	-15.425
2.303	43.35	97.7630	5.5000	-15.274
2.337	43.71	97.7294	5.4981	-15.122
2.370	44.06	97.6959	5.4962	-14.967
2.403	44.42	97.6626	5.4943	-14.809
2.437	44.78	97.6294	5.4924	-14.651
2.470	45.14	97.5965	5.4906	-14.494
2.503	45.50	97.5638	5.4888	-14.337
2.537	45.86	97.5313	5.4869	-14.179
2.570	46.23	97.4989	5.4851	-14.018
2.603	46.59	97.4667	5.4833	-13.856
2.637	46.96	97.4348	5.4815	-13.692
2.670	47.32	97.4031	5.4797	-13.526
2.703	47.69	97.3716	5.4779	-13.362
2.737	48.06	97.3403	5.4762	-13.196
2.770	48.43	97.3091	5.4744	-13.029
2.803	48.80	97.2783	5.4727	-12.862
2.837	49.16	97.2477	5.4710	-12.695
2.870	49.53	97.2173	5.4693	-12.527
2.903	49.90	97.1872	5.4676	-12.360
2.937	50.27	97.1573	5.4659	-12.193
2.970	50.64	97.1277	5.4642	-12.026
3.003	51.01	97.0984	5.4626	-11.858
3.037	51.38	97.0694	5.4609	-11.687
3.070	51.74	97.0406	5.4593	-11.520
3.103	52.11	97.0121	5.4577	-11.352
3.137	52.48	96.9838	5.4561	-11.183
3.170	52.84	96.9559	5.4545	-11.015
3.203	53.21	96.9282	5.4530	-10.847
3.237	53.58	96.9009	5.4515	-10.678
3.270	53.94	96.8739	5.4499	-10.511
3.303	54.31	96.8472	5.4484	-10.344
3.337	54.67	96.8209	5.4470	-10.178
3.370	55.03	96.7948	5.4455	-10.011
3.403	55.40	96.7691	5.4440	-9.845
3.437	55.76	96.7437	5.4426	-9.681
3.470	56.12	96.7188	5.4412	-9.514
3.503	56.48	96.6942	5.4398	-9.347
3.537	56.84	96.6700	5.4385	-9.181
3.570	57.20	96.6462	5.4371	-9.018
3.603	57.55	96.6227	5.4358	-8.857
3.637	57.91	96.5996	5.4345	-8.694
3.670	58.27	96.5769	5.4332	-8.532
3.703	58.62	96.5545	5.4320	-8.369
3.737	58.98	96.5325	5.4307	-8.207
3.770	59.33	96.5109	5.4295	-8.046
3.803	59.69	96.4897	5.4283	-7.888
3.837	60.04	96.4689	5.4272	-7.731
3.870	60.39	96.4484	5.4260	-7.573
3.903	60.74	96.4283	5.4249	-7.415
3.937	61.09	96.4084	5.4237	-7.257
3.970	61.45	96.3889	5.4227	-7.103
4.003	61.80	96.3698	5.4216	-6.949
4.037	62.14	96.3512	5.4205	-6.797
4.070	62.49	96.3330	5.4195	-6.645
4.103	62.84	96.3151	5.4185	-6.493
4.137	63.19	96.2976	5.4175	-6.342
4.170	63.53	96.2804	5.4165	-6.191
4.203	63.88	96.2635	5.4156	-6.043
4.237	64.23	96.2470	5.4147	-5.897
4.270	64.57	96.2308	5.4138	-5.752
4.303	64.92	96.2151	5.4129	-5.607
4.337	65.26	96.1997	5.4120	-5.464
4.370	65.60	96.1846	5.4112	-5.319
4.403	65.95	96.1699	5.4103	-5.176
4.437	66.29	96.1555	5.4095	-5.033
4.470	66.63	96.1414	5.4087	-4.891
4.503	66.98	96.1276	5.4080	-4.752
4.537	67.32	96.1141	5.4072	-4.614
4.570	67.66	96.1010	5.4065	-4.476
4.603	68.00	96.0882	5.4057	-4.339
4.637	68.35	96.0757	5.4050	-4.204
4.670	68.69	96.0634	5.4043	-4.070
4.703	69.03	96.0514	5.4037	-3.936
4.737	69.37	96.0396	5.4030	-3.802
4.770	69.71	96.0281	5.4024	-3.670
4.803	70.05	96.0169	5.4017	-3.538
4.837	70.39	96.0060	5.4011	-3.409
4.870	70.73	95.9953	5.4005	-3.278
4.903	71.07	95.9848	5.3999	-3.150
4.937	71.41	95.9747	5.3993	-3.021
4.970	71.75	95.9648	5.3988	-2.893
5.003	72.09	95.9551	5.3982	-2.767
5.037	72.43	95.9456	5.3977	-2.646
5.070	72.77	95.9364	5.3972	-2.527
5.103	73.11	95.9275	5.3967	-2.402
5.137	73.45	95.9187	5.3962	-2.278
5.170	73.79	95.9101	5.3957	-2.157
5.203	74.14	95.9017	5.3952	-2.037
5.237	74.48	95.8936	5.3948	-1.919
5.270	74.82	95.8856	5.3943	-1.801
5.303	75.16	95.8778	5.3939	-1.685
5.337	75.50	95.8702	5.3935	-1.568
5.370	75.84	95.8628	5.3931	-1.451
5.403	76.18	95.8556	5.3926	-1.334
5.437	76.52	95.8487	5.3923	-1.221
5.470	76.86	95.8420	5.3919	-1.108
5.503	77.20	95.8353	5.3915	-0.996
5.537	77.54	95.8287	5.3911	-0.885
5.570	77.88	95.8224	5.3908	-0.771
5.603	78.23	95.8162	5.3904	-0.662
5.637	78.57	95.8102	5.3901	-0.552
5.670	78.91	95.8043	5.3898	-0.443
5.703	79.25	95.7986	5.3894	-0.334
5.737	79.60	95.7931	5.3891	-0.227
5.770	79.94	95.7877	5.3888	-0.119
5.803	80.28	95.7825	5.3885	-0.012
5.837	80.62	95.7774	5.3883	0.094
5.870	80.97	95.7725	5.3880	0.196
5.903	81.31	95.7676	5.3877	0.298
5.937	81.65	95.7628	5.3874	0.400
5.970	82.00	95.7579	5.3872	0.503
6.003	82.34	95.7533	5.3869	0.603
6.037	82.69	95.7489	5.3866	0.704
6.070	83.03	95.7447	5.3864	0.806
6.103	83.37	95.7405	5.3862	0.907
6.137	83.72	95.7364	5.3859	1.006
6.170	84.06	95.7325	5.3857	1.105
6.203	84.41	95.7287	5.3855	1.206
6.237	84.75	95.7249	5.3853	1.305
6.270	85.09	95.7213	5.3851	1.402
6.303	85.44	95.7177	5.3849	1.500
6.337	85.79	95.7142	5.3847	1.599
6.370	86.13	95.7107	5.3845	1.694
6.403	86.47	95.7073	5.3843	1.788
6.437	86.82	95.7040	5.3841	1.882
6.470	87.16	95.7009	5.3839	1.977
6.503	87.51	95.6979	5.3838	2.070
6.537	87.86	95.6949	5.3836	2.162
6.570	88.20	95.6919	5.3834	2.254
6.603	88.55	95.6891	5.3833	2.346
6.637	88.89	95.6863	5.3831	2.438
6.670	89.24	95.6835	5.3830	2.528
6.703	89.58	95.6808	5.3828	2.617
6.737	89.93	95.6781	5.3827	2.705
6.770	90.27	95.6755	5.3825	2.796
6.803	90.62	95.6729	5.3824	2.887
6.837	90.96	95.6705	5.3822	2.975
6.870	91.31	95.6682	5.3821	3.063
6.903	91.66	95.6659	5.3820	3.149
6.937	92.00	95.6638	5.3819	3.234
6.970	92.35	95.6617	5.3817	3.318
7.003	92.69	95.6595	5.3816	3.402
7.037	93.04	95.6575	5.3815	3.488
7.070	93.38	95.6555	5.3814	3.573
7.103	93.73	95.6536	5.3813	3.657
7.137	94.07	95.6516	5.3812	3.740
7.170	94.42	95.6498	5.3811	3.824
7.203	94.76	95.6480	5.3810	3.905
7.237	95.11	95.6462	5.3809	3.986
7.270	95.45	95.6445	5.3808	4.069
7.303	95.80	95.6428	5.3807	4.150
7.337	96.14	95.6411	5.3806	4.231
7.370	96.49	95.6394	5.3805	4.309
7.403	96.83	95.6379	5.3804	4.389
7.437	97.18	95.6364	5.3803	4.468
7.470	97.52	95.6348	5.3802	4.546
7.503	97.87	95.6333	5.3801	4.625
7.537	98.21	95.6319	5.3801	4.703
7.570	98.56	95.6305	5.3800	4.779
7.603	98.90	95.6291	5.3799	4.854
7.637	99.25	95.6277	5.3798	4.930
7.670	99.59	95.6263	5.3798	5.008
7.703	99.93	95.6250	5.3797	5.083
7.737	100.28	95.6238	5.3796	5.161
7.770	100.62	95.6225	5.3795	5.235
7.803	100.97	95.6213	5.3795	5.307
7.837	101.31	95.6201	5.3794	5.381
7.870	101.65	95.6189	5.3793	5.455
7.903	102.00	95.6176	5.3793	5.528
7.937	102.34	95.6164	5.3792	5.602
7.970	102.69	95.6152	5.3791	5.674
8.003	103.03	95.6140	5.3791	5.744
8.037	103.37	95.6129	5.3790	5.815
8.070	103.72	95.6118	5.3789	5.884
8.103	104.06	95.6107	5.3789	5.954
8.137	104.40	95.6096	5.3788	6.023
8.170	104.75	95.6086	5.3788	6.093
8.203	105.09	95.6077	5.3787	6.161
8.237	105.43	95.6068	5.3787	6.228
8.270	105.78	95.6058	5.3786	6.296
8.303	106.12	95.6048	5.3785	6.365
8.337	106.46	95.6038	5.3785	6.434
8.345	106.55	95.6036	5.3785	6.451

[step]
Isothermal 30.0 min
Time	Temperature	Weight	Weight	Heat Flow
min	°C	%	mg	mW
8.353	106.64	95.6033	5.3785	6.468
8.462	107.74	95.6004	5.3783	6.689
8.570	108.82	95.5973	5.3781	6.940
8.678	109.83	95.5937	5.3779	7.228
8.787	110.74	95.5898	5.3777	7.545
8.895	111.53	95.5856	5.3775	7.883
9.003	112.21	95.5810	5.3772	8.224
9.112	112.76	95.5765	5.3769	8.570
9.220	113.16	95.5721	5.3767	8.897
9.328	113.44	95.5674	5.3764	9.197
9.437	113.62	95.5625	5.3762	9.445
9.545	113.70	95.5576	5.3759	9.643
9.653	113.69	95.5529	5.3756	9.795
9.762	113.62	95.5483	5.3754	9.905
9.870	113.48	95.5439	5.3751	9.972
9.978	113.31	95.5393	5.3749	9.995
10.087	113.12	95.5353	5.3746	9.992
10.195	112.92	95.5319	5.3744	9.941
10.303	112.73	95.5289	5.3743	9.863
10.412	112.56	95.5261	5.3741	9.771
10.520	112.40	95.5239	5.3740	9.677
10.628	112.26	95.5218	5.3739	9.578
10.737	112.14	95.5198	5.3738	9.482
10.845	112.05	95.5182	5.3737	9.392
10.953	111.98	95.5168	5.3736	9.306
11.062	111.94	95.5153	5.3735	9.231
11.170	111.92	95.5138	5.3734	9.170
11.278	111.92	95.5125	5.3733	9.114
11.387	111.94	95.5112	5.3733	9.076
11.495	111.98	95.5100	5.3732	9.041
11.603	112.04	95.5089	5.3731	9.019
11.712	112.10	95.5077	5.3731	9.003
11.820	112.18	95.5066	5.3730	8.993
11.928	112.25	95.5055	5.3730	8.988
12.037	112.34	95.5046	5.3729	8.990
12.145	112.42	95.5030	5.3728	9.000
12.253	112.51	95.5019	5.3728	9.018
12.362	112.59	95.5008	5.3727	9.041
12.470	112.66	95.4995	5.3726	9.060
12.578	112.74	95.4984	5.3726	9.085
12.687	112.80	95.4967	5.3725	9.106
12.795	112.86	95.4955	5.3724	9.129
12.903	112.91	95.4944	5.3723	9.153
13.012	112.95	95.4936	5.3723	9.175
13.120	112.99	95.4926	5.3722	9.196
13.228	113.02	95.4914	5.3722	9.220
13.337	113.05	95.4901	5.3721	9.239
13.445	113.07	95.4888	5.3720	9.254
13.553	113.08	95.4874	5.3719	9.265
13.662	113.09	95.4864	5.3719	9.274
13.770	113.10	95.4852	5.3718	9.283
13.878	113.10	95.4840	5.3717	9.289
13.987	113.10	95.4830	5.3717	9.293
14.095	113.10	95.4819	5.3716	9.295
14.203	113.10	95.4810	5.3716	9.295
14.312	113.10	95.4801	5.3715	9.292
14.420	113.10	95.4790	5.3715	9.288
14.528	113.10	95.4779	5.3714	9.285
14.637	113.09	95.4771	5.3714	9.282
14.745	113.09	95.4762	5.3713	9.277
14.853	113.09	95.4752	5.3713	9.271
14.962	113.10	95.4745	5.3712	9.267
15.070	113.10	95.4737	5.3712	9.263
15.178	113.10	95.4725	5.3711	9.259
15.287	113.11	95.4717	5.3711	9.256
15.395	113.12	95.4705	5.3710	9.253
15.503	113.12	95.4697	5.3709	9.248
15.612	113.13	95.4689	5.3709	9.247
15.720	113.14	95.4680	5.3708	9.244
15.828	113.15	95.4672	5.3708	9.246
15.937	113.15	95.4664	5.3708	9.245
16.045	113.16	95.4658	5.3707	9.244
16.153	113.17	95.4649	5.3707	9.243
16.262	113.18	95.4640	5.3706	9.241
16.370	113.18	95.4633	5.3706	9.240
16.478	113.19	95.4625	5.3705	9.239
16.587	113.20	95.4618	5.3705	9.239
16.695	113.20	95.4610	5.3705	9.239
16.803	113.21	95.4604	5.3704	9.240
16.912	113.22	95.4597	5.3704	9.241
17.020	113.22	95.4590	5.3703	9.241
17.128	113.22	95.4581	5.3703	9.241
17.237	113.23	95.4575	5.3703	9.240
17.345	113.23	95.4568	5.3702	9.240
17.453	113.23	95.4560	5.3702	9.238
17.562	113.24	95.4554	5.3701	9.238
17.670	113.24	95.4546	5.3701	9.238
17.778	113.24	95.4537	5.3700	9.236
17.887	113.24	95.4528	5.3700	9.234
17.995	113.24	95.4520	5.3699	9.234
18.103	113.24	95.4511	5.3699	9.233
18.212	113.24	95.4504	5.3699	9.233
18.320	113.24	95.4498	5.3698	9.230
18.428	113.24	95.4493	5.3698	9.229
18.537	113.25	95.4486	5.3698	9.229
18.645	113.25	95.4478	5.3697	9.226
18.753	113.25	95.4471	5.3697	9.223
18.862	113.25	95.4462	5.3696	9.222
18.970	113.25	95.4456	5.3696	9.221
19.078	113.25	95.4451	5.3696	9.221
19.187	113.25	95.4445	5.3695	9.218
19.295	113.25	95.4440	5.3695	9.215
19.403	113.25	95.4435	5.3695	9.212
19.512	113.25	95.4432	5.3694	9.211
19.620	113.25	95.4425	5.3694	9.209
19.728	113.25	95.4420	5.3694	9.206
19.837	113.25	95.4412	5.3693	9.204
19.945	113.25	95.4405	5.3693	9.202
20.053	113.25	95.4398	5.3693	9.199
20.162	113.25	95.4394	5.3692	9.196
20.270	113.25	95.4391	5.3692	9.195
20.378	113.25	95.4387	5.3692	9.194
20.487	113.25	95.4379	5.3692	9.193
20.595	113.25	95.4372	5.3691	9.192
20.703	113.25	95.4367	5.3691	9.191
20.812	113.25	95.4357	5.3690	9.191
20.920	113.25	95.4351	5.3690	9.190
21.028	113.26	95.4349	5.3690	9.189
21.137	113.26	95.4345	5.3690	9.187
21.245	113.26	95.4341	5.3689	9.184
21.353	113.26	95.4336	5.3689	9.183
21.462	113.26	95.4331	5.3689	9.182
21.570	113.26	95.4326	5.3689	9.181
21.678	113.26	95.4321	5.3688	9.179
21.787	113.26	95.4316	5.3688	9.177
21.895	113.25	95.4311	5.3688	9.174
22.003	113.25	95.4304	5.3687	9.171
22.112	113.26	95.4300	5.3687	9.170
22.220	113.26	95.4294	5.3687	9.170
22.328	113.26	95.4288	5.3686	9.169
22.437	113.26	95.4284	5.3686	9.170
22.545	113.25	95.4277	5.3686	9.168
22.653	113.25	95.4272	5.3685	9.167
22.762	113.25	95.4264	5.3685	9.166
22.870	113.25	95.4260	5.3685	9.164
22.978	113.25	95.4256	5.3685	9.163
23.087	113.25	95.4251	5.3684	9.160
23.195	113.25	95.4248	5.3684	9.158
23.303	113.25	95.4242	5.3684	9.155
23.412	113.25	95.4237	5.3684	9.152
23.520	113.25	95.4233	5.3683	9.149
23.628	113.25	95.4227	5.3683	9.145
23.737	113.25	95.4221	5.3683	9.143
23.845	113.25	95.4217	5.3682	9.139
23.953	113.25	95.4214	5.3682	9.136
24.062	113.25	95.4209	5.3682	9.136
24.170	113.25	95.4204	5.3682	9.135
24.278	113.25	95.4199	5.3681	9.134
24.387	113.25	95.4194	5.3681	9.132
24.495	113.25	95.4186	5.3681	9.130
24.603	113.25	95.4181	5.3680	9.126
24.712	113.25	95.4172	5.3680	9.125
24.820	113.25	95.4167	5.3680	9.125
24.928	113.25	95.4163	5.3679	9.124
25.037	113.25	95.4160	5.3679	9.121
25.145	113.25	95.4154	5.3679	9.120
25.253	113.25	95.4153	5.3679	9.120
25.362	113.25	95.4150	5.3679	9.119
25.470	113.24	95.4146	5.3678	9.116
25.578	113.25	95.4142	5.3678	9.114
25.687	113.25	95.4138	5.3678	9.112
25.795	113.24	95.4135	5.3678	9.110
25.903	113.24	95.4128	5.3677	9.107
26.012	113.24	95.4124	5.3677	9.104
26.120	113.24	95.4121	5.3677	9.102
26.228	113.24	95.4119	5.3677	9.100
26.337	113.24	95.4116	5.3677	9.096
26.445	113.24	95.4111	5.3676	9.096
26.553	113.24	95.4107	5.3676	9.093
26.662	113.24	95.4102	5.3676	9.092
26.770	113.24	95.4097	5.3676	9.091
26.878	113.24	95.4091	5.3675	9.090
26.987	113.24	95.4086	5.3675	9.088
27.095	113.24	95.4083	5.3675	9.086
27.203	113.24	95.4078	5.3675	9.083
27.312	113.24	95.4078	5.3675	9.082
27.420	113.24	95.4076	5.3674	9.081
27.528	113.24	95.4070	5.3674	9.078
27.637	113.24	95.4063	5.3674	9.077
27.745	113.24	95.4060	5.3674	9.073
27.853	113.24	95.4054	5.3673	9.072
27.962	113.24	95.4049	5.3673	9.071
28.070	113.24	95.4044	5.3673	9.070
28.178	113.24	95.4042	5.3673	9.068
28.287	113.24	95.4041	5.3672	9.067
28.395	113.23	95.4036	5.3672	9.063
28.503	113.24	95.4031	5.3672	9.061
28.612	113.24	95.4027	5.3672	9.059
28.720	113.24	95.4026	5.3672	9.059
28.828	113.23	95.4024	5.3672	9.056
28.937	113.24	95.4019	5.3671	9.055
29.045	113.23	95.4016	5.3671	9.052
29.153	113.23	95.4015	5.3671	9.050
29.262	113.23	95.4009	5.3671	9.049
29.370	113.23	95.4004	5.3670	9.047
29.478	113.23	95.4000	5.3670	9.046
29.587	113.23	95.3997	5.3670	9.044
29.695	113.23	95.3991	5.3670	9.044
29.803	113.23	95.3986	5.3669	9.041
29.912	113.23	95.3983	5.3669	9.038
30.020	113.23	95.3981	5.3669	9.036
30.128	113.23	95.3979	5.3669	9.034
30.237	113.23	95.3977	5.3669	9.032
30.345	113.23	95.3975	5.3669	9.032
30.453	113.23	95.3973	5.3669	9.030
30.562	113.23	95.4004	5.3670	9.027
30.670	113.23	95.3976	5.3669	9.024
30.778	113.23	95.3957	5.3668	9.020
30.887	113.23	95.3944	5.3667	9.018
30.995	113.23	95.3935	5.3667	9.017
31.103	113.23	95.3929	5.3666	9.015
31.212	113.23	95.3924	5.3666	9.012
31.320	113.23	95.3917	5.3665	9.009
31.428	113.23	95.3911	5.3665	9.007
31.537	113.23	95.3906	5.3665	9.007
31.645	113.23	95.3902	5.3665	9.006
31.753	113.22	95.3899	5.3664	9.005
31.862	113.22	95.3894	5.3664	9.002
31.970	113.23	95.3891	5.3664	9.001
32.078	113.22	95.3890	5.3664	8.999
32.187	113.22	95.3888	5.3664	8.997
32.295	113.22	95.3885	5.3664	8.993
32.403	113.22	95.3881	5.3664	8.990
32.512	113.22	95.3876	5.3663	8.990
32.620	113.22	95.3871	5.3663	8.989
32.728	113.22	95.3868	5.3663	8.988
32.837	113.22	95.3865	5.3663	8.988
32.945	113.22	95.3864	5.3663	8.986
33.053	113.22	95.3863	5.3662	8.985
33.162	113.22	95.3858	5.3662	8.985
33.270	113.22	95.3853	5.3662	8.983
33.378	113.22	95.3847	5.3662	8.982
33.487	113.22	95.3842	5.3661	8.980
33.595	113.22	95.3843	5.3661	8.979
33.703	113.22	95.3838	5.3661	8.977
33.812	113.22	95.3834	5.3661	8.975
33.920	113.22	95.3830	5.3661	8.974
34.028	113.22	95.3828	5.3661	8.972
34.137	113.22	95.3827	5.3660	8.972
34.245	113.22	95.3824	5.3660	8.970
34.353	113.22	95.3822	5.3660	8.968
34.462	113.22	95.3819	5.3660	8.966
34.570	113.22	95.3816	5.3660	8.965
34.678	113.22	95.3816	5.3660	8.963
34.787	113.22	95.3812	5.3660	8.961
[...]
204.262	948.23	0.8642	0.0486	22.844
204.370	948.31	0.8633	0.0486	23.790
204.478	948.38	0.8629	0.0485	24.663
204.587	948.45	0.8624	0.0485	25.461
204.695	948.51	0.8620	0.0485	26.186
204.803	948.58	0.8615	0.0485	26.885
204.912	948.63	0.8609	0.0484	27.522
205.020	948.69	0.8602	0.0484	28.112
205.128	948.74	0.8591	0.0483	28.664
205.237	948.79	0.8582	0.0483	29.160
205.345	948.83	0.8577	0.0482	29.648
205.453	948.88	0.8570	0.0482	30.097
205.562	948.92	0.8565	0.0482	30.497
205.670	948.96	0.8561	0.0482	30.865
205.778	949.00	0.8553	0.0481	31.200
205.887	949.03	0.8543	0.0481	31.515
205.995	949.07	0.8535	0.0480	31.814
206.103	949.10	0.8531	0.0480	32.078
206.212	949.13	0.8523	0.0479	32.323
206.320	949.16	0.8517	0.0479	32.547
206.428	949.19	0.8511	0.0479	32.754
206.537	949.21	0.8500	0.0478	32.965
206.645	949.24	0.8491	0.0478	33.141
206.753	949.26	0.8483	0.0477	33.299
206.862	949.28	0.8476	0.0477	33.459
206.970	949.30	0.8466	0.0476	33.587
207.078	949.32	0.8459	0.0476	33.710
207.187	949.34	0.8451	0.0475	33.841
207.295	949.36	0.8442	0.0475	33.938
207.403	949.38	0.8435	0.0475	34.032
207.512	949.39	0.8427	0.0474	34.132
207.620	949.41	0.8420	0.0474	34.222
207.728	949.42	0.8414	0.0473	34.305
207.837	949.44	0.8405	0.0473	34.378
207.945	949.45	0.8396	0.0472	34.456
208.053	949.46	0.8387	0.0472	34.517
208.162	949.47	0.8379	0.0471	34.570
208.270	949.49	0.8369	0.0471	34.625
208.378	949.50	0.8362	0.0470	34.669
208.487	949.51	0.8355	0.0470	34.703
208.595	949.52	0.8349	0.0470	34.760
208.703	949.53	0.8341	0.0469	34.803
208.812	949.54	0.8333	0.0469	34.839
208.920	949.54	0.8326	0.0468	34.871
209.028	949.55	0.8317	0.0468	34.896
209.137	949.56	0.8312	0.0468	34.926
209.245	949.57	0.8305	0.0467	34.940
209.353	949.57	0.8296	0.0467	34.960
209.462	949.58	0.8289	0.0466	34.981
209.570	949.59	0.8280	0.0466	35.003
209.678	949.59	0.8272	0.0465	35.020
209.787	949.60	0.8264	0.0465	35.035
209.895	949.60	0.8256	0.0464	35.052
210.003	949.61	0.8249	0.0464	35.065
210.112	949.61	0.8240	0.0464	35.079
210.220	949.62	0.8230	0.0463	35.090
210.328	949.62	0.8222	0.0463	35.106
210.437	949.63	0.8216	0.0462	35.125
210.545	949.63	0.8209	0.0462	35.139
210.653	949.63	0.8201	0.0461	35.140
210.762	949.64	0.8194	0.0461	35.144
210.870	949.64	0.8185	0.0460	35.153
210.978	949.64	0.8175	0.0460	35.163
211.087	949.65	0.8169	0.0460	35.176
211.195	949.65	0.8164	0.0459	35.191
211.303	949.65	0.8156	0.0459	35.196
211.412	949.66	0.8147	0.0458	35.206
211.520	949.66	0.8139	0.0458	35.212
211.628	949.66	0.8129	0.0457	35.211
211.737	949.66	0.8123	0.0457	35.206
211.845	949.67	0.8116	0.0457	35.205
211.953	949.67	0.8108	0.0456	35.207
212.062	949.67	0.8099	0.0456	35.221
212.170	949.67	0.8090	0.0455	35.240
212.278	949.67	0.8082	0.0455	35.253
212.387	949.67	0.8074	0.0454	35.247
212.495	949.68	0.8069	0.0454	35.239
212.603	949.68	0.8062	0.0454	35.247
212.712	949.68	0.8055	0.0453	35.253
212.820	949.68	0.8050	0.0453	35.259
212.928	949.68	0.8043	0.0452	35.275
213.037	949.68	0.8035	0.0452	35.284
213.145	949.68	0.8027	0.0452	35.294
213.253	949.69	0.8018	0.0451	35.308
213.362	949.69	0.8007	0.0450	35.318
213.470	949.69	0.7996	0.0450	35.321
213.578	949.69	0.7986	0.0449	35.338
213.687	949.69	0.7978	0.0449	35.350
213.795	949.69	0.7973	0.0449	35.357
213.903	949.69	0.7967	0.0448	35.357
214.012	949.69	0.7960	0.0448	35.361
214.120	949.69	0.7953	0.0447	35.360
214.228	949.70	0.7946	0.0447	35.354
214.337	949.70	0.7938	0.0447	35.368
214.445	949.70	0.7931	0.0446	35.385
214.553	949.70	0.7924	0.0446	35.400
214.662	949.70	0.7915	0.0445	35.419
214.770	949.70	0.7907	0.0445	35.432
214.878	949.70	0.7901	0.0444	35.441
214.987	949.70	0.7892	0.0444	35.454
215.095	949.70	0.7887	0.0444	35.470
215.203	949.70	0.7881	0.0443	35.481
215.312	949.70	0.7873	0.0443	35.487
215.420	949.70	0.7865	0.0442	35.493
215.528	949.70	0.7856	0.0442	35.496
215.637	949.70	0.7849	0.0442	35.501
215.745	949.70	0.7843	0.0441	35.511
215.853	949.70	0.7837	0.0441	35.535
215.962	949.70	0.7832	0.0441	35.561
216.070	949.70	0.7822	0.0440	35.573
216.178	949.70	0.7814	0.0440	35.578
216.287	949.70	0.7804	0.0439	35.589
216.395	949.70	0.7794	0.0438	35.599
216.503	949.70	0.7785	0.0438	35.607
216.612	949.70	0.7778	0.0438	35.618
216.720	949.70	0.7770	0.0437	35.625
216.828	949.70	0.7764	0.0437	35.639
216.937	949.70	0.7758	0.0436	35.658
217.045	949.70	0.7748	0.0436	35.675
217.153	949.70	0.7740	0.0435	35.692
217.262	949.70	0.7731	0.0435	35.714
217.370	949.70	0.7722	0.0434	35.727
217.478	949.71	0.7713	0.0434	35.736
217.587	949.71	0.7709	0.0434	35.745
217.695	949.71	0.7700	0.0433	35.758
217.803	949.71	0.7692	0.0433	35.778
217.912	949.71	0.7684	0.0432	35.802
218.020	949.70	0.7675	0.0432	35.818
218.128	949.71	0.7670	0.0431	35.835
218.237	949.71	0.7663	0.0431	35.852
218.345	949.71	0.7656	0.0431	35.871
218.453	949.71	0.7651	0.0430	35.883
218.562	949.71	0.7645	0.0430	35.898
218.670	949.71	0.7637	0.0430	35.910
218.778	949.71	0.7629	0.0429	35.917
218.887	949.71	0.7621	0.0429	35.928
218.995	949.71	0.7613	0.0428	35.953
219.103	949.71	0.7606	0.0428	35.970
219.212	949.71	0.7597	0.0427	35.993
219.320	949.71	0.7591	0.0427	36.005
219.428	949.71	0.7584	0.0427	36.013
219.537	949.71	0.7575	0.0426	36.023
219.645	949.71	0.7566	0.0426	36.038
219.753	949.71	0.7560	0.0425	36.052
219.862	949.71	0.7555	0.0425	36.060
219.970	949.71	0.7548	0.0425	36.072
220.078	949.71	0.7541	0.0424	36.087
220.187	949.71	0.7534	0.0424	36.106
220.295	949.71	0.7525	0.0423	36.129
220.403	949.71	0.7517	0.0423	36.149
220.512	949.71	0.7511	0.0423	36.165
220.620	949.71	0.7506	0.0422	36.178
220.728	949.71	0.7498	0.0422	36.184
220.837	949.71	0.7487	0.0421	36.191
220.945	949.71	0.7479	0.0421	36.194
221.053	949.71	0.7468	0.0420	36.197
221.162	949.71	0.7458	0.0420	36.206
221.270	949.71	0.7451	0.0419	36.221
221.378	949.71	0.7444	0.0419	36.233
221.487	949.71	0.7437	0.0418	36.244
221.595	949.71	0.7427	0.0418	36.258
221.703	949.71	0.7420	0.0417	36.279
221.812	949.71	0.7413	0.0417	36.298
221.920	949.71	0.7408	0.0417	36.311
222.028	949.71	0.7400	0.0416	36.322
222.137	949.71	0.7395	0.0416	36.334
222.245	949.71	0.7389	0.0416	36.344
222.353	949.71	0.7384	0.0415	36.349
222.462	949.71	0.7374	0.0415	36.349
222.570	949.71	0.7368	0.0415	36.353
222.678	949.71	0.7363	0.0414	36.364
222.787	949.71	0.7354	0.0414	36.378
222.895	949.71	0.7347	0.0413	36.391
223.003	949.71	0.7340	0.0413	36.408
223.112	949.71	0.7334	0.0413	36.415
223.220	949.71	0.7324	0.0412	36.428
223.328	949.71	0.7313	0.0411	36.446
223.437	949.71	0.7307	0.0411	36.453
223.545	949.71	0.7300	0.0411	36.464
223.653	949.71	0.7293	0.0410	36.470
223.762	949.72	0.7286	0.0410	36.478
223.870	949.72	0.7276	0.0409	36.494
223.978	949.72	0.7271	0.0409	36.508
224.087	949.71	0.7264	0.0409	36.524
224.195	949.71	0.7254	0.0408	36.544
224.303	949.71	0.7245	0.0408	36.567
224.412	949.71	0.7237	0.0407	36.584
224.520	949.72	0.7230	0.0407	36.597
224.628	949.72	0.7222	0.0406	36.607
224.737	949.72	0.7214	0.0406	36.623
224.845	949.72	0.7205	0.0405	36.632
224.953	949.72	0.7196	0.0405	36.645
225.062	949.72	0.7188	0.0404	36.654
225.170	949.72	0.7180	0.0404	36.663
225.278	949.72	0.7174	0.0404	36.669
225.387	949.72	0.7164	0.0403	36.683
225.495	949.72	0.7156	0.0403	36.713
225.603	949.72	0.7149	0.0402	36.730
225.712	949.72	0.7142	0.0402	36.736
225.820	949.72	0.7133	0.0401	36.744
225.928	949.72	0.7124	0.0401	36.754
226.037	949.72	0.7117	0.0400	36.761
226.145	949.72	0.7112	0.0400	36.768
226.253	949.72	0.7106	0.0400	36.781
226.362	949.72	0.7098	0.0399	36.805
226.470	949.72	0.7090	0.0399	36.823
226.578	949.72	0.7081	0.0398	36.842
226.687	949.72	0.7070	0.0398	36.849
226.795	949.72	0.7063	0.0397	36.853
226.903	949.72	0.7059	0.0397	36.867
227.012	949.72	0.7053	0.0397	36.879
227.120	949.72	0.7046	0.0396	36.892
227.228	949.72	0.7041	0.0396	36.896
227.337	949.72	0.7036	0.0396	36.895
227.445	949.72	0.7030	0.0395	36.902
227.553	949.72	0.7021	0.0395	36.921
227.662	949.72	0.7014	0.0395	36.937
227.770	949.72	0.7003	0.0394	36.950
227.878	949.72	0.6993	0.0393	36.963
227.987	949.72	0.6985	0.0393	36.969
228.095	949.72	0.6978	0.0393	36.986
228.203	949.72	0.6968	0.0392	37.003
228.312	949.72	0.6959	0.0392	37.009
228.420	949.72	0.6950	0.0391	37.019
228.528	949.72	0.6943	0.0391	37.028
228.637	949.72	0.6935	0.0390	37.037
228.745	949.72	0.6928	0.0390	37.060
228.853	949.72	0.6922	0.0389	37.074
228.962	949.72	0.6916	0.0389	37.089
229.070	949.72	0.6910	0.0389	37.099
229.178	949.72	0.6902	0.0388	37.110
229.287	949.72	0.6895	0.0388	37.119
229.395	949.72	0.6888	0.0387	37.135
229.503	949.72	0.6880	0.0387	37.152
229.612	949.73	0.6872	0.0387	37.170
229.720	949.72	0.6862	0.0386	37.180
229.828	949.73	0.6853	0.0386	37.192
229.937	949.73	0.6844	0.0385	37.193
230.045	949.73	0.6836	0.0385	37.201
230.153	949.73	0.6828	0.0384	37.215
230.245		0.6819	0.0384