File: _test/MIS_1.txt
Time	Temperature	Weight	Weight	Heat Flow
min	°C	%	mg	mW
0.003		100.0367	5.8126
0.037		100.2542	5.8253
0.070	25.99	100.3416	5.8304	-22.686
0.103	26.30	100.3476	5.8307	-22.583
0.137	26.60	100.3450	5.8306	-22.491
0.170	26.89	100.3393	5.8302	-22.406
0.203	27.18	100.3308	5.8297	-22.329
0.237	27.46	100.3196	5.8291	-22.259
0.270	27.73	100.3058	5.8283	-22.190
0.303	28.00	100.2894	5.8273	-22.124
0.337	28.27	100.2705	5.8262	-22.063
0.370	28.52	100.2492	5.8250	-22.006
0.403	28.77	100.2257	5.8236	-21.949
0.437	29.02	100.2002	5.8221	-21.892
0.470	29.26	100.1730	5.8206	-21.836
0.503	29.49	100.1445	5.8189	-21.783
0.537	29.72	100.1146	5.8172	-21.729
0.570	29.94	100.0838	5.8154	-21.676
0.603	30.16	100.0520	5.8135	-21.621
0.637	30.37	100.0193	5.8116	-21.565
0.670	30.58	99.9860	5.8097	-21.508
0.703	30.78	99.9522	5.8077	-21.451
0.737	30.98	99.9181	5.8057	-21.395
0.770	31.18	99.8836	5.8037	-21.339
0.803	31.37	99.8490	5.8017	-21.281
0.837	31.57	99.8143	5.7997	-21.221
0.870	31.76	99.7795	5.7977	-21.161
0.903	31.95	99.7448	5.7957	-21.105
0.937	32.14	99.7101	5.7937	-21.049
0.970	32.33	99.6756	5.7917	-20.993
1.003	32.53	99.6415	5.7897	-20.937
1.037	32.73	99.6078	5.7877	-20.882
1.070	32.93	99.5743	5.7858	-20.827
1.103	33.14	99.5410	5.7838	-20.767
1.137	33.35	99.5082	5.7819	-20.709
1.170	33.56	99.4756	5.7800	-20.652
1.203	33.78	99.4432	5.7782	-20.594
1.237	34.00	99.4110	5.7763	-20.536
1.270	34.22	99.3789	5.7744	-20.476
1.303	34.45	99.3470	5.7726	-20.414
1.337	34.69	99.3152	5.7707	-20.349
1.370	34.92	99.2836	5.7689	-20.282
1.403	35.17	99.2521	5.7671	-20.210
1.437	35.41	99.2205	5.7652	-20.138
1.470	35.67	99.1890	5.7634	-20.067
1.503	35.93	99.1575	5.7616	-19.994
1.537	36.19	99.1260	5.7597	-19.918
1.570	36.45	99.0946	5.7579	-19.840
1.603	36.73	99.0632	5.7561	-19.761
1.637	37.00	99.0318	5.7543	-19.678
1.670	37.28	99.0003	5.7524	-19.597
1.703	37.57	98.9688	5.7506	-19.513
1.737	37.86	98.9370	5.7487	-19.429
1.770	38.15	98.9052	5.7469	-19.342
1.803	38.45	98.8733	5.7450	-19.254
1.837	38.75	98.8413	5.7432	-19.165
1.870	39.06	98.8092	5.7413	-19.074
1.903	39.37	98.7771	5.7395	-18.983
1.937	39.68	98.7450	5.7376	-18.892
1.970	40.00	98.7127	5.7357	-18.796
2.003	40.32	98.6803	5.7338	-18.697
2.037	40.65	98.6479	5.7319	-18.599
2.070	40.97	98.6154	5.7301	-18.500
2.103	41.31	98.5827	5.7282	-18.400
2.137	41.64	98.5499	5.7263	-18.299
2.170	41.98	98.5170	5.7243	-18.197
2.203	42.31	98.4840	5.7224	-18.094
2.237	42.66	98.4508	5.7205	-17.989
2.270	43.00	98.4175	5.7186	-17.882
2.303	43.34	98.3840	5.7166	-17.774
2.337	43.69	98.3503	5.7147	-17.666
2.370	44.04	98.3164	5.7127	-17.555
2.403	44.39	98.2823	5.7107	-17.443
2.437	44.75	98.2479	5.7087	-17.329
2.470	45.10	98.2134	5.7067	-17.214
2.503	45.46	98.1788	5.7047	-17.099
2.537	45.81	98.1439	5.7027	-16.982
2.570	46.17	98.1089	5.7006	-16.865
2.603	46.53	98.0738	5.6986	-16.745
2.637	46.89	98.0385	5.6965	-16.626
2.670	47.25	98.0029	5.6945	-16.505
2.703	47.61	97.9672	5.6924	-16.383
2.737	47.97	97.9314	5.6903	-16.261
2.770	48.34	97.8954	5.6882	-16.136
2.803	48.70	97.8592	5.6861	-16.008
2.837	49.06	97.8228	5.6840	-15.881
2.870	49.42	97.7862	5.6819	-15.756
2.903	49.79	97.7495	5.6797	-15.629
2.937	50.15	97.7126	5.6776	-15.502
2.970	50.51	97.6756	5.6755	-15.374
3.003	50.87	97.6384	5.6733	-15.246
3.037	51.24	97.6012	5.6711	-15.114
3.070	51.60	97.5639	5.6690	-14.982
3.103	51.96	97.5265	5.6668	-14.851
3.137	52.32	97.4891	5.6646	-14.718
3.170	52.69	97.4515	5.6624	-14.584
3.203	53.05	97.4138	5.6602	-14.449
3.237	53.41	97.3760	5.6580	-14.313
3.270	53.77	97.3381	5.6558	-14.177
3.303	54.13	97.3003	5.6536	-14.045
3.337	54.49	97.2625	5.6514	-13.912
3.370	54.84	97.2246	5.6492	-13.777
3.403	55.20	97.1867	5.6470	-13.639
3.437	55.56	97.1488	5.6448	-13.502
3.470	55.92	97.1108	5.6426	-13.366
3.503	56.27	97.0729	5.6404	-13.227
3.537	56.63	97.0352	5.6382	-13.090
3.570	56.99	96.9975	5.6360	-12.953
3.603	57.34	96.9598	5.6339	-12.817
3.637	57.69	96.9223	5.6317	-12.680
3.670	58.05	96.8849	5.6295	-12.543
3.703	58.40	96.8475	5.6273	-12.405
3.737	58.75	96.8102	5.6252	-12.268
3.770	59.10	96.7731	5.6230	-12.131
3.803	59.45	96.7361	5.6209	-11.993
3.837	59.80	96.6992	5.6187	-11.855
3.870	60.15	96.6625	5.6166	-11.717
3.903	60.50	96.6259	5.6145	-11.580
3.937	60.85	96.5895	5.6123	-11.444
3.970	61.20	96.5533	5.6102	-11.307
4.003	61.55	96.5172	5.6081	-11.169
4.037	61.89	96.4814	5.6061	-11.029
4.070	62.24	96.4459	5.6040	-10.892
4.103	62.59	96.4106	5.6019	-10.756
4.137	62.93	96.3756	5.5999	-10.619
4.170	63.28	96.3408	5.5979	-10.483
4.203	63.62	96.3062	5.5959	-10.347
4.237	63.97	96.2718	5.5939	-10.213
4.270	64.31	96.2377	5.5919	-10.078
4.303	64.66	96.2040	5.5899	-9.943
4.337	65.00	96.1705	5.5880	-9.808
4.370	65.34	96.1372	5.5861	-9.672
4.403	65.68	96.1042	5.5841	-9.539
4.437	66.03	96.0716	5.5822	-9.405
4.470	66.37	96.0393	5.5804	-9.268
4.503	66.71	96.0072	5.5785	-9.137
4.537	67.05	95.9755	5.5767	-9.005
4.570	67.40	95.9440	5.5748	-8.875
4.603	67.74	95.9129	5.5730	-8.741
4.637	68.08	95.8820	5.5712	-8.612
4.670	68.42	95.8516	5.5695	-8.481
4.703	68.76	95.8215	5.5677	-8.348
4.737	69.11	95.7916	5.5660	-8.215
4.770	69.45	95.7620	5.5643	-8.083
4.803	69.79	95.7328	5.5626	-7.951
4.837	70.13	95.7039	5.5609	-7.820
4.870	70.47	95.6755	5.5592	-7.692
4.903	70.81	95.6475	5.5576	-7.564
4.937	71.15	95.6197	5.5560	-7.434
4.970	71.49	95.5922	5.5544	-7.305
5.003	71.83	95.5650	5.5528	-7.178
5.037	72.18	95.5382	5.5513	-7.050
5.070	72.52	95.5117	5.5497	-6.923
5.103	72.86	95.4857	5.5482	-6.798
5.137	73.20	95.4599	5.5467	-6.674
5.170	73.54	95.4345	5.5452	-6.549
5.203	73.88	95.4094	5.5438	-6.424
5.237	74.23	95.3847	5.5423	-6.299
5.270	74.57	95.3604	5.5409	-6.176
5.303	74.91	95.3365	5.5395	-6.055
5.337	75.25	95.3129	5.5382	-5.932
5.370	75.60	95.2896	5.5368	-5.809
5.403	75.94	95.2666	5.5355	-5.685
5.437	76.28	95.2439	5.5342	-5.563
5.470	76.62	95.2216	5.5329	-5.442
5.503	76.97	95.1996	5.5316	-5.321
5.537	77.31	95.1778	5.5303	-5.202
5.570	77.65	95.1564	5.5291	-5.085
5.603	78.00	95.1353	5.5278	-4.969
5.637	78.34	95.1145	5.5266	-4.852
5.670	78.68	95.0940	5.5254	-4.733
5.703	79.03	95.0740	5.5243	-4.614
5.737	79.37	95.0542	5.5231	-4.494
5.770	79.72	95.0348	5.5220	-4.375
5.803	80.06	95.0156	5.5209	-4.257
5.837	80.41	94.9967	5.5198	-4.142
5.870	80.75	94.9782	5.5187	-4.024
5.903	81.10	94.9600	5.5177	-3.909
5.937	81.44	94.9421	5.5166	-3.796
5.970	81.79	94.9245	5.5156	-3.682
6.003	82.13	94.9072	5.5146	-3.568
6.037	82.48	94.8902	5.5136	-3.455
6.070	82.83	94.8735	5.5126	-3.343
6.103	83.17	94.8571	5.5117	-3.232
6.137	83.52	94.8410	5.5107	-3.120
6.170	83.86	94.8252	5.5098	-3.007
6.203	84.21	94.8097	5.5089	-2.896
6.237	84.56	94.7945	5.5080	-2.784
6.270	84.90	94.7795	5.5072	-2.674
6.303	85.25	94.7647	5.5063	-2.564
6.337	85.60	94.7502	5.5055	-2.457
6.370	85.94	94.7360	5.5046	-2.349
6.403	86.29	94.7221	5.5038	-2.241
6.437	86.64	94.7084	5.5030	-2.132
6.470	86.99	94.6949	5.5023	-2.027
6.503	87.33	94.6818	5.5015	-1.920
6.537	87.68	94.6689	5.5007	-1.812
6.570	88.03	94.6561	5.5000	-1.706
6.603	88.38	94.6437	5.4993	-1.602
6.637	88.72	94.6315	5.4986	-1.496
6.670	89.07	94.6196	5.4979	-1.389
6.703	89.42	94.6080	5.4972	-1.284
6.737	89.77	94.5966	5.4965	-1.180
6.770	90.12	94.5854	5.4959	-1.077
6.803	90.46	94.5743	5.4953	-0.978
6.837	90.81	94.5637	5.4946	-0.879
6.870	91.16	94.5532	5.4940	-0.776
6.903	91.51	94.5430	5.4934	-0.673
6.937	91.85	94.5328	5.4928	-0.572
6.970	92.20	94.5230	5.4923	-0.470
7.003	92.55	94.5133	5.4917	-0.369
7.037	92.90	94.5038	5.4912	-0.269
7.070	93.25	94.4945	5.4906	-0.172
7.103	93.59	94.4855	5.4901	-0.073
7.137	93.94	94.4767	5.4896	0.027
7.170	94.29	94.4681	5.4891	0.125
7.203	94.64	94.4596	5.4886	0.222
7.237	94.99	94.4514	5.4881	0.319
7.270	95.33	94.4434	5.4876	0.416
7.303	95.68	94.4357	5.4872	0.511
7.337	96.03	94.4281	5.4868	0.606
7.370	96.38	94.4207	5.4863	0.701
7.403	96.72	94.4134	5.4859	0.797
7.437	97.07	94.4063	5.4855	0.891
7.470	97.42	94.3994	5.4851	0.985
7.503	97.76	94.3926	5.4847	1.078
7.537	98.11	94.3859	5.4843	1.170
7.570	98.45	94.3793	5.4839	1.259
7.603	98.80	94.3729	5.4835	1.349
7.637	99.15	94.3667	5.4832	1.440
7.670	99.49	94.3608	5.4828	1.530
7.703	99.84	94.3549	5.4825	1.619
7.737	100.19	94.3492	5.4822	1.709
7.770	100.53	94.3437	5.4818	1.799
7.803	100.88	94.3382	5.4815	1.885
7.837	101.22	94.3329	5.4812	1.971
7.870	101.57	94.3277	5.4809	2.058
7.903	101.92	94.3226	5.4806	2.146
7.937	102.26	94.3177	5.4803	2.232
7.970	102.61	94.3128	5.4801	2.319
8.003	102.96	94.3082	5.4798	2.404
8.037	103.30	94.3036	5.4795	2.487
8.070	103.65	94.2992	5.4793	2.570
8.103	103.99	94.2949	5.4790	2.654
8.137	104.34	94.2906	5.4788	2.737
8.170	104.68	94.2864	5.4785	2.819
8.203	105.03	94.2823	5.4783	2.899
8.237	105.37	94.2783	5.4781	2.981
8.270	105.72	94.2743	5.4778	3.062
8.303	106.06	94.2704	5.4776	3.142

[step]
Isothermal 30.0 min
Time	Temperature	Weight	Weight	Heat Flow
min	°C	%	mg	mW
8.312	106.15	94.2694	5.4775	3.162
8.420	107.27	94.2577	5.4769	3.429
8.528	108.35	94.2470	5.4762	3.727
8.637	109.37	94.2369	5.4756	4.076
8.745	110.30	94.2273	5.4751	4.485
8.853	111.12	94.2182	5.4746	4.951
8.962	111.82	94.2098	5.4741	5.449
9.070	112.40	94.2019	5.4736	5.985
9.178	112.85	94.1947	5.4732	6.538
9.287	113.17	94.1879	5.4728	7.083
9.395	113.38	94.1810	5.4724	7.590
9.503	113.50	94.1749	5.4720	8.065
9.612	113.54	94.1693	5.4717	8.487
9.720	113.51	94.1641	5.4714	8.865
9.828	113.41	94.1590	5.4711	9.202
9.937	113.27	94.1540	5.4708	9.481
10.045	113.11	94.1499	5.4706	9.689
10.153	112.95	94.1464	5.4704	9.837
10.262	112.78	94.1435	5.4702	9.943
10.370	112.62	94.1414	5.4701	10.008
10.478	112.48	94.1393	5.4700	10.044
10.587	112.35	94.1374	5.4699	10.058
10.695	112.24	94.1357	5.4698	10.063
10.803	112.15	94.1346	5.4697	10.053
10.912	112.08	94.1336	5.4696	10.027
11.020	112.04	94.1324	5.4696	9.984
11.128	112.02	94.1314	5.4695	9.944
11.237	112.02	94.1307	5.4695	9.894
11.345	112.04	94.1299	5.4694	9.848
11.453	112.07	94.1294	5.4694	9.809
11.562	112.12	94.1287	5.4694	9.777
11.670	112.18	94.1280	5.4693	9.750
11.778	112.25	94.1274	5.4693	9.725
11.887	112.33	94.1267	5.4692	9.712
11.995	112.41	94.1261	5.4692	9.698
12.103	112.49	94.1256	5.4692	9.692
12.212	112.57	94.1252	5.4692	9.690
12.320	112.65	94.1245	5.4691	9.692
12.428	112.73	94.1238	5.4691	9.704
12.537	112.80	94.1232	5.4690	9.722
12.645	112.87	94.1226	5.4690	9.745
12.753	112.93	94.1218	5.4690	9.769
12.862	112.98	94.1211	5.4689	9.792
12.970	113.03	94.1204	5.4689	9.827
13.078	113.07	94.1200	5.4689	9.856
13.187	113.10	94.1195	5.4688	9.885
13.295	113.13	94.1188	5.4688	9.914
13.403	113.15	94.1182	5.4688	9.936
13.512	113.17	94.1175	5.4687	9.960
13.620	113.18	94.1169	5.4687	9.981
13.728	113.19	94.1163	5.4686	10.001
13.837	113.19	94.1158	5.4686	10.016
13.945	113.20	94.1153	5.4686	10.031
14.053	113.20	94.1146	5.4685	10.043
14.162	113.20	94.1142	5.4685	10.055
14.270	113.20	94.1134	5.4685	10.066
14.378	113.20	94.1128	5.4684	10.074
14.487	113.20	94.1124	5.4684	10.080
14.595	113.20	94.1121	5.4684	10.083
14.703	113.20	94.1116	5.4684	10.085
14.812	113.20	94.1110	5.4683	10.086
14.920	113.20	94.1105	5.4683	10.086
15.028	113.21	94.1099	5.4683	10.084
15.137	113.21	94.1097	5.4683	10.083
15.245	113.22	94.1093	5.4682	10.081
15.353	113.22	94.1090	5.4682	10.079
15.462	113.23	94.1084	5.4682	10.076
15.570	113.23	94.1078	5.4681	10.074
15.678	113.24	94.1076	5.4681	10.073
15.787	113.25	94.1074	5.4681	10.071
15.895	113.26	94.1073	5.4681	10.069
16.003	113.27	94.1069	5.4681	10.066
16.112	113.27	94.1065	5.4681	10.064
16.220	113.28	94.1062	5.4681	10.065
16.328	113.29	94.1058	5.4680	10.065
16.437	113.30	94.1055	5.4680	10.066
16.545	113.30	94.1050	5.4680	10.067
16.653	113.31	94.1047	5.4680	10.066
16.762	113.32	94.1041	5.4679	10.067
16.870	113.32	94.1037	5.4679	10.068
16.978	113.33	94.1034	5.4679	10.068
17.087	113.33	94.1033	5.4679	10.069
17.195	113.34	94.1030	5.4679	10.070
17.303	113.34	94.1027	5.4678	10.070
17.412	113.34	94.1026	5.4678	10.073
17.520	113.35	94.1023	5.4678	10.074
17.628	113.35	94.1018	5.4678	10.074
17.737	113.35	94.1013	5.4678	10.074
17.845	113.35	94.1011	5.4678	10.074
17.953	113.35	94.1009	5.4677	10.075
18.062	113.35	94.1009	5.4677	10.074
18.170	113.35	94.1004	5.4677	10.073
18.278	113.35	94.0999	5.4677	10.072
18.387	113.36	94.0995	5.4677	10.072
18.495	113.36	94.0994	5.4677	10.070
18.603	113.36	94.0989	5.4676	10.069
18.712	113.36	94.0986	5.4676	10.068
18.820	113.36	94.0983	5.4676	10.065
18.928	113.36	94.0978	5.4676	10.063
19.037	113.36	94.0975	5.4675	10.061
19.145	113.36	94.0971	5.4675	10.061
19.253	113.36	94.0968	5.4675	10.058
19.362	113.36	94.0967	5.4675	10.056
19.470	113.36	94.0963	5.4675	10.054
19.578	113.36	94.0961	5.4675	10.052
19.687	113.36	94.0960	5.4675	10.050
19.795	113.36	94.0957	5.4674	10.049
19.903	113.36	94.0954	5.4674	10.046
20.012	113.36	94.0954	5.4674	10.045
20.120	113.36	94.0949	5.4674	10.043
20.228	113.36	94.0945	5.4674	10.040
20.337	113.36	94.0944	5.4674	10.038
20.445	113.36	94.0943	5.4674	10.036
20.553	113.37	94.0942	5.4674	10.035
20.662	113.37	94.0941	5.4673	10.033
20.770	113.37	94.0938	5.4673	10.030
20.878	113.37	94.0935	5.4673	10.029
20.987	113.37	94.0932	5.4673	10.027
21.095	113.37	94.0930	5.4673	10.024
21.203	113.37	94.0926	5.4673	10.023
21.312	113.37	94.0924	5.4673	10.021
21.420	113.37	94.0921	5.4672	10.021
21.528	113.37	94.0915	5.4672	10.019
21.637	113.37	94.0912	5.4672	10.019
21.745	113.37	94.0910	5.4672	10.016
21.853	113.37	94.0913	5.4672	10.015
21.962	113.37	94.0911	5.4672	10.013
22.070	113.37	94.0911	5.4672	10.010
22.178	113.37	94.0909	5.4672	10.009
22.287	113.36	94.0907	5.4671	10.006
22.395	113.36	94.0907	5.4671	10.005
22.503	113.36	94.0907	5.4672	10.002
22.612	113.37	94.0903	5.4671	10.000
22.720	113.36	94.0903	5.4671	9.998
22.828	113.36	94.0903	5.4671	9.995
22.937	113.36	94.0901	5.4671	9.994
23.045	113.36	94.0900	5.4671	9.991
23.153	113.36	94.0899	5.4671	9.990
23.262	113.36	94.0897	5.4671	9.987
23.370	113.36	94.0897	5.4671	9.985
23.478	113.36	94.0894	5.4671	9.983
23.587	113.36	94.0894	5.4671	9.981
23.695	113.36	94.0895	5.4671	9.979
23.803	113.36	94.0894	5.4671	9.975
23.912	113.36	94.0890	5.4671	9.974
24.020	113.36	94.0888	5.4670	9.973
24.128	113.36	94.0887	5.4670	9.970
24.237	113.36	94.0886	5.4670	9.967
24.345	113.36	94.0883	5.4670	9.964
24.453	113.36	94.0881	5.4670	9.961
24.562	113.36	94.0877	5.4670	9.958
24.670	113.36	94.0874	5.4670	9.957
24.778	113.36	94.0873	5.4670	9.953
24.887	113.36	94.0874	5.4670	9.948
24.995	113.36	94.0871	5.4669	9.945
25.103	113.35	94.0871	5.4669	9.944
25.212	113.35	94.0873	5.4670	9.943
25.320	113.35	94.0871	5.4669	9.940
25.428	113.36	94.0869	5.4669	9.937
25.537	113.35	94.0867	5.4669	9.933
25.645	113.35	94.0866	5.4669	9.930
25.753	113.35	94.0866	5.4669	9.928
25.862	113.35	94.0866	5.4669	9.927
25.970	113.35	94.0866	5.4669	9.925
26.078	113.35	94.0864	5.4669	9.923
26.187	113.35	94.0863	5.4669	9.921
26.295	113.35	94.0863	5.4669	9.920
26.403	113.35	94.0862	5.4669	9.918
26.512	113.35	94.0861	5.4669	9.917
26.620	113.35	94.0857	5.4669	9.915
26.728	113.35	94.0855	5.4668	9.912
26.837	113.35	94.0854	5.4668	9.912
26.945	113.35	94.0853	5.4668	9.909
27.053	113.35	94.0849	5.4668	9.906
27.162	113.35	94.0849	5.4668	9.906
27.270	113.35	94.0850	5.4668	9.906
27.378	113.35	94.0850	5.4668	9.905
27.487	113.35	94.0848	5.4668	9.903
27.595	113.35	94.0847	5.4668	9.903
27.703	113.35	94.0847	5.4668	9.901
27.812	113.35	94.0845	5.4668	9.898
27.920	113.35	94.0847	5.4668	9.895
28.028	113.35	94.0846	5.4668	9.892
28.137	113.35	94.0845	5.4668	9.891
28.245	113.34	94.0846	5.4668	9.889
28.353	113.34	94.0844	5.4668	9.886
28.462	113.34	94.0841	5.4668	9.882
28.570	113.34	94.0840	5.4668	9.880
28.678	113.34	94.0839	5.4668	9.877
28.787	113.34	94.0837	5.4667	9.876
28.895	113.34	94.0835	5.4667	9.874
29.003	113.34	94.0834	5.4667	9.873
29.112	113.34	94.0833	5.4667	9.872
29.220	113.34	94.0834	5.4667	9.871
29.328	113.34	94.0834	5.4667	9.869
29.437	113.34	94.0831	5.4667	9.869
29.545	113.34	94.0831	5.4667	9.865
29.653	113.34	94.0831	5.4667	9.863
29.762	113.34	94.0829	5.4667	9.860
29.870	113.34	94.0829	5.4667	9.857
29.978	113.34	94.0825	5.4667	9.854
30.087	113.34	94.0820	5.4666	9.851
30.195	113.34	94.0819	5.4666	9.851
30.303	113.34	94.0817	5.4666	9.849
30.412	113.34	94.0816	5.4666	9.847
30.520	113.34	94.0817	5.4666	9.845
30.628	113.34	94.0815	5.4666	9.845
30.737	113.34	94.0813	5.4666	9.842
30.845	113.34	94.0809	5.4666	9.840
30.953	113.34	94.0808	5.4666	9.840
31.062	113.33	94.0807	5.4666	9.839
31.170	113.33	94.0806	5.4666	9.838
31.278	113.33	94.0807	5.4666	9.836
31.387	113.33	94.0809	5.4666	9.835
31.495	113.33	94.0811	5.4666	9.832
31.603	113.33	94.0808	5.4666	9.829
31.712	113.33	94.0804	5.4666	9.826
31.820	113.33	94.0802	5.4665	9.825
31.928	113.33	94.0804	5.4666	9.822
32.037	113.33	94.0802	5.4665	9.820
32.145	113.33	94.0804	5.4665	9.819
32.253	113.33	94.0802	5.4665	9.817
32.362	113.33	94.0796	5.4665	9.816
32.470	113.33	94.0795	5.4665	9.815
32.578	113.33	94.0794	5.4665	9.813
32.687	113.33	94.0795	5.4665	9.812
32.795	113.33	94.0792	5.4665	9.809
32.903	113.33	94.0790	5.4665	9.807
33.012	113.33	94.0787	5.4665	9.805
33.120	113.33	94.0790	5.4665	9.804
33.228	113.33	94.0791	5.4665	9.802
33.337	113.33	94.0787	5.4665	9.799
33.445	113.33	94.0786	5.4664	9.797
33.553	113.33	94.0786	5.4664	9.796
33.662	113.33	94.0783	5.4664	9.795
33.770	113.33	94.0782	5.4664	9.795
33.878	113.33	94.0780	5.4664	9.794
33.987	113.33	94.0779	5.4664	9.792
34.095	113.33	94.0778	5.4664	9.791
34.203	113.33	94.0779	5.4664	9.788
34.312	113.32	94.0777	5.4664	9.787
34.420	113.32	94.0773	5.4664	9.785
34.528	113.33	94.0770	5.4664	9.782
[...]
155.820	948.79	-0.4159	-0.0242	5.671
155.937	948.81	-0.4167	-0.0242	5.941
156.053	948.83	-0.4172	-0.0242	6.237
156.170	948.85	-0.4179	-0.0243	6.522
156.287	948.86	-0.4189	-0.0243	6.800
156.403	948.87	-0.4197	-0.0244	7.086
156.520	948.89	-0.4207	-0.0244	7.319
156.637	948.90	-0.4216	-0.0245	7.541
156.753	948.91	-0.4224	-0.0245	7.714
156.870	948.92	-0.4230	-0.0246	7.919
156.987	948.93	-0.4234	-0.0246	8.092
157.103	948.94	-0.4238	-0.0246	8.305
157.220	948.95	-0.4246	-0.0247	8.451
157.337	948.96	-0.4255	-0.0247	8.603
157.453	948.97	-0.4261	-0.0248	8.767
157.570	948.98	-0.4266	-0.0248	8.883
157.687	948.99	-0.4271	-0.0248	8.993
157.803	949.00	-0.4275	-0.0248	9.095
157.920	949.00	-0.4282	-0.0249	9.177
158.037	949.01	-0.4287	-0.0249	9.296
158.153	949.01	-0.4293	-0.0249	9.433
158.270	949.02	-0.4301	-0.0250	9.526
158.387	949.03	-0.4308	-0.0250	9.613
158.503	949.03	-0.4312	-0.0251	9.695
158.620	949.04	-0.4320	-0.0251	9.776
158.737	949.04	-0.4325	-0.0251	9.856
158.853	949.04	-0.4333	-0.0252	9.945
158.970	949.05	-0.4340	-0.0252	10.014
159.087	949.05	-0.4344	-0.0252	10.083
159.203	949.06	-0.4348	-0.0253	10.143
159.320	949.06	-0.4356	-0.0253	10.224
159.437	949.06	-0.4362	-0.0253	10.294
159.553	949.07	-0.4368	-0.0254	10.361
159.670	949.07	-0.4377	-0.0254	10.419
159.787	949.07	-0.4384	-0.0255	10.466
159.903	949.08	-0.4389	-0.0255	10.510
160.020	949.08	-0.4396	-0.0255	10.577
160.137	949.08	-0.4403	-0.0256	10.641
160.253	949.09	-0.4408	-0.0256	10.690
160.370	949.09	-0.4411	-0.0256	10.751
160.487	949.09	-0.4415	-0.0257	10.795
160.603	949.09	-0.4422	-0.0257	10.844
160.720	949.10	-0.4427	-0.0257	10.884
160.837	949.10	-0.4430	-0.0257	10.919
160.953	949.10	-0.4435	-0.0258	10.968
161.070	949.10	-0.4442	-0.0258	11.006
161.187	949.10	-0.4445	-0.0258	11.056
161.303	949.10	-0.4450	-0.0259	11.096
161.420	949.11	-0.4454	-0.0259	11.138
161.537	949.11	-0.4460	-0.0259	11.159
161.653	949.11	-0.4466	-0.0259	11.181
161.770	949.11	-0.4472	-0.0260	11.225
161.887	949.11	-0.4475	-0.0260	11.270
162.003	949.11	-0.4478	-0.0260	11.303
162.120	949.12	-0.4482	-0.0260	11.334
162.237	949.12	-0.4488	-0.0261	11.371
162.353	949.12	-0.4495	-0.0261	11.412
162.470	949.12	-0.4500	-0.0261	11.449
162.587	949.12	-0.4504	-0.0262	11.471
162.703	949.12	-0.4508	-0.0262	11.489
162.820	949.12	-0.4513	-0.0262	11.519
162.937	949.12	-0.4518	-0.0263	11.563
163.053	949.12	-0.4523	-0.0263	11.607
163.170	949.13	-0.4534	-0.0263	11.641
163.287	949.13	-0.4539	-0.0264	11.684
163.403	949.13	-0.4544	-0.0264	11.723
163.520	949.13	-0.4547	-0.0264	11.760
163.637	949.13	-0.4552	-0.0264	11.790
163.753	949.13	-0.4557	-0.0265	11.821
163.870	949.13	-0.4561	-0.0265	11.848
163.987	949.13	-0.4565	-0.0265	11.877
164.103	949.14	-0.4568	-0.0265	11.898
164.220	949.14	-0.4573	-0.0266	11.931
164.337	949.14	-0.4580	-0.0266	11.965
164.453	949.14	-0.4588	-0.0267	12.002
164.570	949.14	-0.4592	-0.0267	12.035
164.687	949.14	-0.4594	-0.0267	12.053
164.803	949.14	-0.4598	-0.0267	12.075
164.920	949.14	-0.4604	-0.0268	12.111
165.037	949.14	-0.4607	-0.0268	12.125
165.153	949.14	-0.4610	-0.0268	12.153
165.270	949.14	-0.4616	-0.0268	12.177
165.387	949.14	-0.4622	-0.0269	12.203
165.503	949.14	-0.4626	-0.0269	12.220
165.620	949.14	-0.4628	-0.0269	12.250
165.737	949.14	-0.4630	-0.0269	12.285
165.853	949.15	-0.4637	-0.0269	12.319
165.970	949.15	-0.4642	-0.0270	12.351
166.087	949.15	-0.4647	-0.0270	12.380
166.203	949.15	-0.4655	-0.0270	12.405
166.320	949.15	-0.4660	-0.0271	12.438
166.437	949.15	-0.4664	-0.0271	12.467
166.553	949.15	-0.4666	-0.0271	12.491
166.670	949.15	-0.4670	-0.0271	12.508
166.787	949.15	-0.4675	-0.0272	12.523
166.903	949.15	-0.4679	-0.0272	12.539
167.020	949.15	-0.4685	-0.0272	12.560
167.137	949.15	-0.4689	-0.0272	12.588
167.253	949.15	-0.4692	-0.0273	12.601
167.370	949.16	-0.4697	-0.0273	12.613
167.487	949.15	-0.4701	-0.0273	12.639
167.603	949.15	-0.4706	-0.0273	12.662
167.720	949.16	-0.4709	-0.0274	12.687
167.837	949.15	-0.4711	-0.0274	12.712
167.953	949.16	-0.4717	-0.0274	12.751
168.070	949.16	-0.4719	-0.0274	12.772
168.187	949.16	-0.4724	-0.0274	12.784
168.303	949.16	-0.4729	-0.0275	12.793
168.420	949.16	-0.4733	-0.0275	12.822
168.537	949.16	-0.4738	-0.0275	12.845
168.653	949.16	-0.4741	-0.0275	12.867
168.770	949.16	-0.4747	-0.0276	12.908
168.887	949.16	-0.4751	-0.0276	12.934
169.003	949.16	-0.4754	-0.0276	12.959
169.120	949.16	-0.4760	-0.0277	12.991
169.237	949.16	-0.4765	-0.0277	13.024
169.353	949.16	-0.4769	-0.0277	13.057
169.470	949.16	-0.4774	-0.0277	13.082
169.587	949.16	-0.4776	-0.0278	13.094
169.703	949.16	-0.4782	-0.0278	13.102
169.820	949.16	-0.4785	-0.0278	13.122
169.937	949.17	-0.4791	-0.0278	13.139
170.053	949.16	-0.4794	-0.0279	13.167
170.170	949.17	-0.4798	-0.0279	13.199
170.287	949.17	-0.4801	-0.0279	13.227
170.403	949.17	-0.4802	-0.0279	13.257
170.520	949.17	-0.4806	-0.0279	13.284
170.637	949.17	-0.4812	-0.0280	13.306
170.753	949.17	-0.4818	-0.0280	13.319
170.870	949.17	-0.4821	-0.0280	13.332
170.987	949.17	-0.4827	-0.0280	13.356
171.103	949.17	-0.4830	-0.0281	13.374
171.220	949.17	-0.4833	-0.0281	13.394
171.337	949.17	-0.4835	-0.0281	13.416
171.453	949.17	-0.4841	-0.0281	13.435
171.570	949.17	-0.4846	-0.0282	13.450
171.687	949.17	-0.4851	-0.0282	13.467
171.803	949.17	-0.4854	-0.0282	13.492
171.920	949.17	-0.4856	-0.0282	13.515
172.037	949.17	-0.4862	-0.0283	13.546
172.153	949.17	-0.4865	-0.0283	13.572
172.270	949.17	-0.4869	-0.0283	13.594
172.387	949.17	-0.4874	-0.0283	13.620
172.503	949.17	-0.4876	-0.0283	13.635
172.620	949.18	-0.4881	-0.0284	13.651
172.737	949.18	-0.4887	-0.0284	13.669
172.853	949.18	-0.4893	-0.0284	13.690
172.970	949.18	-0.4896	-0.0284	13.718
173.087	949.18	-0.4903	-0.0285	13.739
173.203	949.18	-0.4909	-0.0285	13.759
173.320	949.18	-0.4912	-0.0285	13.775
173.437	949.18	-0.4916	-0.0286	13.798
173.553	949.18	-0.4921	-0.0286	13.815
173.670	949.18	-0.4927	-0.0286	13.828
173.787	949.18	-0.4928	-0.0286	13.832
173.903	949.18	-0.4931	-0.0286	13.866
174.020	949.18	-0.4936	-0.0287	13.892
174.137	949.18	-0.4940	-0.0287	13.911
174.253	949.18	-0.4944	-0.0287	13.931
174.370	949.18	-0.4951	-0.0288	13.958
174.487	949.18	-0.4951	-0.0288	14.001
174.603	949.18	-0.4955	-0.0288	14.039
174.720	949.18	-0.4960	-0.0288	14.077
174.837	949.19	-0.4966	-0.0289	14.107
174.953	949.19	-0.4968	-0.0289	14.123
175.070	949.19	-0.4972	-0.0289	14.154
175.187	949.19	-0.4976	-0.0289	14.186
175.303	949.19	-0.4980	-0.0289	14.210
175.420	949.19	-0.4981	-0.0289	14.218
175.537	949.19	-0.4987	-0.0290	14.236
175.653	949.19	-0.4989	-0.0290	14.261
175.770	949.19	-0.4991	-0.0290	14.283
175.887	949.19	-0.4998	-0.0290	14.315
176.003	949.19	-0.5002	-0.0291	14.345
176.120	949.19	-0.5005	-0.0291	14.372
176.237	949.19	-0.5008	-0.0291	14.391
176.353	949.19	-0.5013	-0.0291	14.421
176.470	949.19	-0.5018	-0.0292	14.451
176.587	949.19	-0.5024	-0.0292	14.486
176.703	949.19	-0.5031	-0.0292	14.513
176.820	949.19	-0.5033	-0.0292	14.525
176.937	949.20	-0.5039	-0.0293	14.546
177.053	949.20	-0.5043	-0.0293	14.567
177.170	949.20	-0.5046	-0.0293	14.576
177.287	949.20	-0.5050	-0.0293	14.580
177.403	949.20	-0.5052	-0.0294	14.578
177.520	949.20	-0.5051	-0.0294	14.581
177.637	949.20	-0.5053	-0.0294	14.594
177.753	949.20	-0.5057	-0.0294	14.612
177.870	949.20	-0.5063	-0.0294	14.650
177.987	949.20	-0.5067	-0.0294	14.699
178.103	949.20	-0.5069	-0.0295	14.725
178.220	949.20	-0.5069	-0.0295	14.742
178.337	949.20	-0.5072	-0.0295	14.752
178.453	949.20	-0.5074	-0.0295	14.774
178.570	949.20	-0.5077	-0.0295	14.802
178.687	949.20	-0.5079	-0.0295	14.826
178.803	949.20	-0.5086	-0.0296	14.847
178.920	949.20	-0.5090	-0.0296	14.863
179.037	949.20	-0.5095	-0.0296	14.883
179.153	949.20	-0.5100	-0.0296	14.905
179.270	949.20	-0.5104	-0.0297	14.920
179.387	949.20	-0.5109	-0.0297	14.912
179.503	949.20	-0.5114	-0.0297	14.915
179.620	949.20	-0.5119	-0.0297	14.928
179.737	949.20	-0.5123	-0.0298	14.956
179.853	949.20	-0.5126	-0.0298	14.977
179.970	949.21	-0.5125	-0.0298	14.997
180.087	949.21	-0.5128	-0.0298	15.006
180.203	949.21	-0.5128	-0.0298	15.020
180.320	949.21	-0.5132	-0.0298	15.039
180.437	949.21	-0.5136	-0.0298	15.040
180.553	949.21	-0.5141	-0.0299	15.040
180.670	949.21	-0.5145	-0.0299	15.070
180.787	949.21	-0.5151	-0.0299	15.100
180.903	949.21	-0.5155	-0.0300	15.119
181.020	949.21	-0.5160	-0.0300	15.142
181.137	949.21	-0.5163	-0.0300	15.164
181.253	949.21	-0.5163	-0.0300	15.179
181.370	949.21	-0.5164	-0.0300	15.186
181.487	949.21	-0.5165	-0.0300	15.186
181.603	949.21	-0.5167	-0.0300	15.192
181.720	949.21	-0.5170	-0.0300	15.207
181.837	949.21	-0.5173	-0.0301	15.234
181.953	949.21	-0.5177	-0.0301	15.254
182.070	949.21	-0.5183	-0.0301	15.282
182.187	949.21	-0.5188	-0.0301	15.310
182.303		-0.5191	-0.0302
182.312		-0.5192	-0.0302