File: _test/SDa_1.txt
Time	Temperature	Weight	Weight	Heat Flow
min	°C	%	mg	mW
0.003		100.0011	18.3336
0.037		100.0168	18.3365
0.070	21.25	100.0285	18.3386	-17.152
0.103	21.24	100.0284	18.3386	-17.204
0.137	21.23	100.0228	18.3376	-17.259
0.170	21.22	100.0161	18.3363	-17.318
0.203	21.21	100.0083	18.3349	-17.380
0.237	21.21	99.9995	18.3333	-17.452
0.270	21.21	99.9895	18.3315	-17.530
0.303	21.22	99.9782	18.3294	-17.613
0.337	21.24	99.9657	18.3271	-17.703
0.370	21.26	99.9520	18.3246	-17.801
0.403	21.30	99.9373	18.3219	-17.905
0.437	21.34	99.9220	18.3191	-18.013
0.470	21.40	99.9060	18.3162	-18.127
0.503	21.47	99.8896	18.3131	-18.246
0.537	21.55	99.8727	18.3100	-18.371
0.570	21.64	99.8555	18.3069	-18.501
0.603	21.74	99.8383	18.3037	-18.633
0.637	21.85	99.8212	18.3006	-18.766
0.670	21.98	99.8043	18.2975	-18.898
0.703	22.12	99.7879	18.2945	-19.032
0.737	22.27	99.7719	18.2916	-19.163
0.770	22.44	99.7564	18.2887	-19.292
0.803	22.62	99.7414	18.2860	-19.414
0.837	22.81	99.7269	18.2833	-19.529
0.870	23.01	99.7126	18.2807	-19.639
0.903	23.23	99.6986	18.2781	-19.745
0.937	23.46	99.6847	18.2756	-19.840
0.970	23.70	99.6708	18.2730	-19.925
1.003	23.95	99.6569	18.2705	-20.001
1.037	24.22	99.6429	18.2679	-20.072
1.070	24.49	99.6287	18.2653	-20.137
1.103	24.77	99.6143	18.2627	-20.196
1.137	25.06	99.5996	18.2600	-20.247
1.170	25.36	99.5848	18.2573	-20.289
1.203	25.67	99.5696	18.2545	-20.325
1.237	25.99	99.5543	18.2517	-20.355
1.270	26.32	99.5386	18.2488	-20.379
1.303	26.65	99.5227	18.2459	-20.398
1.337	26.99	99.5065	18.2429	-20.412
1.370	27.33	99.4900	18.2399	-20.423
1.403	27.69	99.4733	18.2368	-20.431
1.437	28.04	99.4562	18.2337	-20.435
1.470	28.40	99.4388	18.2305	-20.437
1.503	28.77	99.4211	18.2272	-20.436
1.537	29.14	99.4031	18.2240	-20.428
1.570	29.51	99.3848	18.2206	-20.412
1.603	29.89	99.3662	18.2172	-20.388
1.637	30.27	99.3472	18.2137	-20.358
1.670	30.65	99.3278	18.2101	-20.323
1.703	31.04	99.3078	18.2065	-20.283
1.737	31.43	99.2871	18.2027	-20.243
1.770	31.82	99.2656	18.1988	-20.198
1.803	32.21	99.2434	18.1947	-20.152
1.837	32.60	99.2203	18.1904	-20.104
1.870	32.99	99.1963	18.1860	-20.053
1.903	33.39	99.1715	18.1815	-20.000
1.937	33.78	99.1461	18.1768	-19.944
1.970	34.18	99.1199	18.1720	-19.885
2.003	34.57	99.0931	18.1671	-19.824
2.037	34.96	99.0656	18.1621	-19.762
2.070	35.36	99.0375	18.1569	-19.698
2.103	35.75	99.0087	18.1516	-19.629
2.137	36.14	98.9793	18.1463	-19.560
2.170	36.53	98.9496	18.1408	-19.491
2.203	36.92	98.9194	18.1353	-19.421
2.237	37.31	98.8887	18.1296	-19.349
2.270	37.70	98.8577	18.1240	-19.276
2.303	38.08	98.8265	18.1182	-19.202
2.337	38.47	98.7946	18.1124	-19.126
2.370	38.85	98.7623	18.1065	-19.052
2.403	39.23	98.7296	18.1005	-18.980
2.437	39.61	98.6970	18.0945	-18.904
2.470	39.99	98.6640	18.0885	-18.827
2.503	40.37	98.6306	18.0823	-18.747
2.537	40.74	98.5969	18.0761	-18.668
2.570	41.11	98.5627	18.0699	-18.588
2.603	41.48	98.5280	18.0635	-18.509
2.637	41.85	98.4933	18.0572	-18.432
2.670	42.22	98.4582	18.0507	-18.354
2.703	42.58	98.4226	18.0442	-18.274
2.737	42.94	98.3870	18.0377	-18.193
2.770	43.30	98.3511	18.0311	-18.112
2.803	43.66	98.3151	18.0245	-18.033
2.837	44.02	98.2789	18.0179	-17.954
2.870	44.37	98.2424	18.0112	-17.873
2.903	44.73	98.2058	18.0045	-17.793
2.937	45.08	98.1691	17.9977	-17.717
2.970	45.43	98.1321	17.9909	-17.637
3.003	45.78	98.0948	17.9841	-17.556
3.037	46.12	98.0573	17.9772	-17.477
3.070	46.47	98.0197	17.9703	-17.398
3.103	46.81	97.9819	17.9634	-17.319
3.137	47.16	97.9445	17.9565	-17.240
3.170	47.50	97.9066	17.9496	-17.162
3.203	47.84	97.8687	17.9426	-17.081
3.237	48.18	97.8306	17.9357	-16.998
3.270	48.52	97.7922	17.9286	-16.914
3.303	48.86	97.7538	17.9216	-16.829
3.337	49.19	97.7156	17.9146	-16.747
3.370	49.53	97.6773	17.9076	-16.663
3.403	49.86	97.6390	17.9005	-16.582
3.437	50.20	97.6007	17.8935	-16.500
3.470	50.53	97.5623	17.8865	-16.417
3.503	50.86	97.5237	17.8794	-16.332
3.537	51.20	97.4852	17.8723	-16.246
3.570	51.53	97.4468	17.8653	-16.163
3.603	51.86	97.4085	17.8583	-16.078
3.637	52.19	97.3704	17.8513	-15.991
3.670	52.52	97.3325	17.8443	-15.903
3.703	52.85	97.2944	17.8374	-15.815
3.737	53.19	97.2564	17.8304	-15.725
3.770	53.52	97.2183	17.8234	-15.635
3.803	53.85	97.1806	17.8165	-15.546
3.837	54.18	97.1431	17.8096	-15.456
3.870	54.51	97.1055	17.8027	-15.365
3.903	54.84	97.0680	17.7959	-15.273
3.937	55.17	97.0306	17.7890	-15.178
3.970	55.50	96.9936	17.7822	-15.083
4.003	55.83	96.9566	17.7754	-14.988
4.037	56.16	96.9198	17.7687	-14.893
4.070	56.49	96.8832	17.7620	-14.794
4.103	56.83	96.8469	17.7553	-14.693
4.137	57.16	96.8108	17.7487	-14.594
4.170	57.49	96.7747	17.7421	-14.495
4.203	57.82	96.7387	17.7355	-14.396
4.237	58.16	96.7029	17.7289	-14.294
4.270	58.49	96.6675	17.7224	-14.191
4.303	58.83	96.6326	17.7160	-14.088
4.337	59.16	96.5977	17.7096	-13.982
4.370	59.50	96.5630	17.7033	-13.875
4.403	59.83	96.5284	17.6969	-13.769
4.437	60.17	96.4941	17.6906	-13.662
4.470	60.50	96.4602	17.6844	-13.554
4.503	60.84	96.4266	17.6783	-13.445
4.537	61.18	96.3932	17.6721	-13.330
4.570	61.52	96.3601	17.6661	-13.214
4.603	61.85	96.3272	17.6600	-13.100
4.637	62.19	96.2944	17.6540	-12.987
4.670	62.53	96.2621	17.6481	-12.872
4.703	62.87	96.2301	17.6422	-12.755
4.737	63.21	96.1983	17.6364	-12.638
4.770	63.55	96.1667	17.6306	-12.519
4.803	63.89	96.1353	17.6249	-12.399
4.837	64.24	96.1043	17.6192	-12.278
4.870	64.58	96.0738	17.6136	-12.158
4.903	64.92	96.0436	17.6081	-12.035
4.937	65.26	96.0137	17.6026	-11.912
4.970	65.61	95.9841	17.5971	-11.789
5.003	65.95	95.9546	17.5917	-11.665
5.037	66.29	95.9255	17.5864	-11.539
5.070	66.64	95.8966	17.5811	-11.411
5.103	66.98	95.8682	17.5759	-11.283
5.137	67.33	95.8400	17.5707	-11.155
5.170	67.68	95.8120	17.5656	-11.027
5.203	68.02	95.7843	17.5605	-10.898
5.237	68.37	95.7570	17.5555	-10.768
5.270	68.72	95.7302	17.5506	-10.636
5.303	69.06	95.7036	17.5457	-10.506
5.337	69.41	95.6770	17.5408	-10.375
5.370	69.76	95.6505	17.5360	-10.243
5.403	70.11	95.6246	17.5312	-10.108
5.437	70.45	95.5991	17.5266	-9.974
5.470	70.80	95.5740	17.5220	-9.838
5.503	71.15	95.5491	17.5174	-9.703
5.537	71.50	95.5244	17.5129	-9.569
5.570	71.85	95.4999	17.5084	-9.432
5.603	72.20	95.4757	17.5039	-9.296
5.637	72.55	95.4520	17.4996	-9.162
5.670	72.90	95.4288	17.4953	-9.025
5.703	73.25	95.4057	17.4911	-8.885
5.737	73.60	95.3831	17.4870	-8.746
5.770	73.95	95.3608	17.4829	-8.610
5.803	74.29	95.3387	17.4788	-8.472
5.837	74.64	95.3169	17.4748	-8.335
5.870	75.00	95.2954	17.4709	-8.196
5.903	75.35	95.2740	17.4670	-8.059
5.937	75.70	95.2528	17.4631	-7.923
5.970	76.05	95.2319	17.4592	-7.783
6.003	76.40	95.2113	17.4555	-7.644
6.037	76.75	95.1907	17.4517	-7.505
6.070	77.10	95.1701	17.4479	-7.366
6.103	77.45	95.1495	17.4441	-7.228
6.137	77.80	95.1290	17.4404	-7.090
6.170	78.15	95.1086	17.4366	-6.952
6.203	78.50	95.0882	17.4329	-6.812
6.237	78.85	95.0678	17.4292	-6.674
6.270	79.20	95.0476	17.4254	-6.536
6.303	79.55	95.0275	17.4218	-6.398
6.337	79.90	95.0076	17.4181	-6.262
6.370	80.25	94.9878	17.4145	-6.125
6.403	80.60	94.9682	17.4109	-5.988
6.437	80.95	94.9487	17.4073	-5.851
6.470	81.30	94.9295	17.4038	-5.715
6.503	81.65	94.9104	17.4003	-5.577
6.537	82.00	94.8915	17.3968	-5.440
6.570	82.35	94.8728	17.3934	-5.304
6.603	82.70	94.8543	17.3900	-5.169
6.637	83.05	94.8361	17.3867	-5.034
6.670	83.40	94.8181	17.3834	-4.897
6.703	83.76	94.8003	17.3801	-4.759
6.737	84.11	94.7827	17.3769	-4.620
6.770	84.46	94.7653	17.3737	-4.486
6.803	84.81	94.7482	17.3706	-4.352
6.837	85.16	94.7313	17.3675	-4.220
6.870	85.51	94.7147	17.3644	-4.088
6.903	85.86	94.6983	17.3614	-3.956
6.937	86.21	94.6821	17.3584	-3.823
6.970	86.55	94.6661	17.3555	-3.690
7.003	86.90	94.6503	17.3526	-3.559
7.037	87.25	94.6348	17.3498	-3.426
7.070	87.60	94.6195	17.3470	-3.294
7.103	87.95	94.6044	17.3442	-3.163
7.137	88.30	94.5895	17.3415	-3.036
7.170	88.65	94.5749	17.3388	-2.909
7.203	89.00	94.5606	17.3362	-2.780
7.237	89.35	94.5464	17.3336	-2.653
7.270	89.70	94.5324	17.3310	-2.523
7.303	90.05	94.5186	17.3285	-2.394
7.337	90.40	94.5051	17.3260	-2.267
7.370	90.75	94.4918	17.3235	-2.140
7.403	91.10	94.4787	17.3211	-2.014
7.437	91.44	94.4657	17.3188	-1.889
7.470	91.79	94.4530	17.3164	-1.764
7.503	92.14	94.4405	17.3141	-1.640
7.537	92.49	94.4282	17.3119	-1.518
7.570	92.84	94.4161	17.3097	-1.397
7.603	93.19	94.4042	17.3075	-1.276
7.637	93.53	94.3926	17.3054	-1.152
7.670	93.88	94.3811	17.3032	-1.030
7.703	94.23	94.3698	17.3012	-0.908
7.737	94.58	94.3586	17.2991	-0.789
7.770	94.93	94.3476	17.2971	-0.669
7.803	95.28	94.3369	17.2951	-0.550
7.837	95.63	94.3263	17.2932	-0.431
7.870	95.98	94.3158	17.2913	-0.314
7.903	96.32	94.3056	17.2894	-0.198
7.937	96.67	94.2956	17.2876	-0.082
7.970	97.02	94.2857	17.2858	0.034
8.003	97.37	94.2760	17.2840	0.147
8.037	97.71	94.2665	17.2822	0.262
8.070	98.06	94.2572	17.2805	0.377
8.103	98.41	94.2480	17.2789	0.491
8.137	98.76	94.2390	17.2772	0.603
8.170	99.10	94.2302	17.2756	0.715
8.203	99.45	94.2215	17.2740	0.827
8.237	99.80	94.2130	17.2724	0.937
8.270	100.15	94.2046	17.2709	1.047
8.303	100.49	94.1964	17.2694	1.153
8.337	100.84	94.1883	17.2679	1.262
8.370	101.19	94.1804	17.2665	1.370
8.403	101.54	94.1726	17.2650	1.478
8.437	101.88	94.1650	17.2636	1.585
8.470	102.23	94.1576	17.2623	1.692
8.503	102.58	94.1503	17.2609	1.799
8.537	102.93	94.1431	17.2596	1.901
8.570	103.27	94.1361	17.2583	2.002
8.603	103.62	94.1292	17.2571	2.106
8.637	103.96	94.1224	17.2558	2.210
8.670	104.31	94.1158	17.2546	2.314
8.703	104.66	94.1093	17.2534	2.414
8.737	105.01	94.1030	17.2523	2.514
8.770	105.35	94.0968	17.2511	2.615
8.803	105.70	94.0907	17.2500	2.715

[step]
Isothermal 30.0 min
Time	Temperature	Weight	Weight	Heat Flow
min	°C	%	mg	mW
8.812	105.79	94.0892	17.2497	2.740
8.920	106.91	94.0703	17.2463	3.063
9.028	108.00	94.0526	17.2430	3.415
9.137	109.02	94.0361	17.2400	3.821
9.245	109.95	94.0208	17.2372	4.277
9.353	110.78	94.0066	17.2346	4.773
9.462	111.48	93.9936	17.2322	5.299
9.570	112.07	93.9817	17.2300	5.846
9.678	112.52	93.9707	17.2280	6.405
9.787	112.84	93.9606	17.2262	6.955
9.895	113.05	93.9514	17.2245	7.470
10.003	113.17	93.9432	17.2230	7.939
10.112	113.19	93.9358	17.2216	8.364
10.220	113.14	93.9290	17.2204	8.740
10.328	113.05	93.9229	17.2193	9.046
10.437	112.93	93.9176	17.2183	9.282
10.545	112.79	93.9128	17.2174	9.464
10.653	112.64	93.9085	17.2166	9.600
10.762	112.50	93.9047	17.2159	9.702
10.870	112.36	93.9015	17.2153	9.768
10.978	112.23	93.8986	17.2148	9.808
11.087	112.12	93.8959	17.2143	9.832
11.195	112.03	93.8935	17.2139	9.844
11.303	111.95	93.8914	17.2135	9.850
11.412	111.90	93.8894	17.2131	9.842
11.520	111.87	93.8877	17.2128	9.828
11.628	111.86	93.8861	17.2125	9.808
11.737	111.87	93.8847	17.2122	9.787
11.845	111.90	93.8834	17.2120	9.760
11.953	111.94	93.8822	17.2118	9.739
12.062	112.00	93.8810	17.2116	9.722
12.170	112.07	93.8800	17.2114	9.708
12.278	112.14	93.8790	17.2112	9.700
12.387	112.23	93.8781	17.2110	9.694
12.495	112.31	93.8772	17.2109	9.692
12.603	112.40	93.8763	17.2107	9.694
12.712	112.48	93.8755	17.2106	9.702
12.820	112.56	93.8746	17.2104	9.715
12.928	112.64	93.8738	17.2103	9.733
13.037	112.72	93.8731	17.2101	9.751
13.145	112.78	93.8724	17.2100	9.781
13.253	112.85	93.8718	17.2099	9.809
13.362	112.90	93.8710	17.2097	9.840
13.470	112.95	93.8704	17.2096	9.870
13.578	113.00	93.8698	17.2095	9.895
13.687	113.03	93.8693	17.2094	9.922
13.795	113.06	93.8688	17.2093	9.943
13.903	113.09	93.8682	17.2092	9.962
14.012	113.11	93.8676	17.2091	9.984
14.120	113.12	93.8671	17.2090	10.000
14.228	113.13	93.8665	17.2089	10.017
14.337	113.15	93.8660	17.2088	10.031
14.445	113.15	93.8656	17.2087	10.041
14.553	113.16	93.8652	17.2087	10.053
14.662	113.16	93.8647	17.2086	10.061
14.770	113.16	93.8643	17.2085	10.069
14.878	113.16	93.8639	17.2084	10.073
14.987	113.17	93.8635	17.2084	10.075
15.095	113.17	93.8631	17.2083	10.075
15.203	113.17	93.8627	17.2082	10.073
15.312	113.17	93.8624	17.2082	10.071
15.420	113.18	93.8620	17.2081	10.067
15.528	113.18	93.8617	17.2080	10.064
15.637	113.19	93.8614	17.2080	10.060
15.745	113.19	93.8611	17.2079	10.055
15.853	113.20	93.8608	17.2079	10.049
15.962	113.21	93.8605	17.2078	10.045
16.070	113.22	93.8601	17.2077	10.041
16.178	113.23	93.8598	17.2077	10.038
16.287	113.24	93.8596	17.2076	10.036
16.395	113.24	93.8593	17.2076	10.031
16.503	113.25	93.8591	17.2076	10.027
16.612	113.26	93.8589	17.2075	10.022
16.720	113.27	93.8587	17.2075	10.019
16.828	113.28	93.8585	17.2074	10.016
16.937	113.29	93.8582	17.2074	10.013
17.045	113.29	93.8580	17.2074	10.010
17.153	113.30	93.8577	17.2073	10.007
17.262	113.31	93.8575	17.2073	10.004
17.370	113.31	93.8573	17.2072	10.000
17.478	113.32	93.8570	17.2072	9.999
17.587	113.32	93.8568	17.2071	9.997
17.695	113.33	93.8566	17.2071	9.994
17.803	113.33	93.8565	17.2071	9.991
17.912	113.33	93.8563	17.2070	9.986
18.020	113.33	93.8561	17.2070	9.983
18.128	113.34	93.8560	17.2070	9.979
18.237	113.34	93.8557	17.2069	9.975
18.345	113.34	93.8556	17.2069	9.967
18.453	113.34	93.8554	17.2069	9.964
18.562	113.34	93.8552	17.2068	9.961
18.670	113.34	93.8551	17.2068	9.959
18.778	113.34	93.8549	17.2068	9.955
18.887	113.34	93.8546	17.2067	9.948
18.995	113.34	93.8545	17.2067	9.943
19.103	113.35	93.8543	17.2067	9.939
19.212	113.34	93.8541	17.2066	9.933
19.320	113.35	93.8540	17.2066	9.929
19.428	113.34	93.8538	17.2066	9.923
19.537	113.35	93.8535	17.2065	9.918
19.645	113.35	93.8534	17.2065	9.915
19.753	113.35	93.8532	17.2065	9.911
19.862	113.35	93.8531	17.2065	9.905
19.970	113.35	93.8529	17.2064	9.899
20.078	113.35	93.8528	17.2064	9.892
20.187	113.35	93.8527	17.2064	9.888
20.295	113.35	93.8526	17.2064	9.884
20.403	113.35	93.8525	17.2063	9.877
20.512	113.35	93.8523	17.2063	9.873
20.620	113.35	93.8521	17.2063	9.867
20.728	113.35	93.8519	17.2062	9.860
20.837	113.35	93.8517	17.2062	9.853
20.945	113.35	93.8515	17.2062	9.847
21.053	113.35	93.8514	17.2061	9.843
21.162	113.35	93.8513	17.2061	9.838
21.270	113.35	93.8511	17.2061	9.833
21.378	113.35	93.8511	17.2061	9.827
21.487	113.35	93.8510	17.2061	9.821
21.595	113.35	93.8508	17.2060	9.815
21.703	113.35	93.8507	17.2060	9.810
21.812	113.35	93.8506	17.2060	9.804
21.920	113.35	93.8505	17.2060	9.795
22.028	113.35	93.8503	17.2059	9.790
22.137	113.34	93.8502	17.2059	9.783
22.245	113.34	93.8502	17.2059	9.778
22.353	113.34	93.8501	17.2059	9.775
22.462	113.34	93.8500	17.2059	9.768
22.570	113.34	93.8499	17.2059	9.761
22.678	113.34	93.8496	17.2058	9.756
22.787	113.34	93.8495	17.2058	9.753
22.895	113.34	93.8494	17.2058	9.748
23.003	113.34	93.8492	17.2057	9.744
23.112	113.34	93.8491	17.2057	9.739
23.220	113.34	93.8490	17.2057	9.734
23.328	113.34	93.8490	17.2057	9.727
23.437	113.34	93.8489	17.2057	9.719
23.545	113.34	93.8488	17.2057	9.713
23.653	113.34	93.8487	17.2056	9.706
23.762	113.34	93.8486	17.2056	9.701
23.870	113.33	93.8485	17.2056	9.698
23.978	113.33	93.8484	17.2056	9.693
24.087	113.33	93.8482	17.2056	9.688
24.195	113.33	93.8481	17.2055	9.682
24.303	113.33	93.8480	17.2055	9.677
24.412	113.33	93.8479	17.2055	9.672
24.520	113.33	93.8478	17.2055	9.666
24.628	113.33	93.8478	17.2055	9.662
24.737	113.33	93.8477	17.2055	9.656
24.845	113.33	93.8475	17.2054	9.651
24.953	113.32	93.8474	17.2054	9.645
25.062	113.32	93.8472	17.2054	9.640
25.170	113.32	93.8472	17.2054	9.635
25.278	113.32	93.8471	17.2054	9.631
25.387	113.32	93.8471	17.2054	9.624
25.495	113.32	93.8471	17.2053	9.619
25.603	113.32	93.8469	17.2053	9.614
25.712	113.32	93.8468	17.2053	9.610
25.820	113.32	93.8467	17.2053	9.605
25.928	113.32	93.8466	17.2053	9.600
26.037	113.32	93.8465	17.2052	9.596
26.145	113.32	93.8464	17.2052	9.592
26.253	113.32	93.8464	17.2052	9.589
26.362	113.31	93.8463	17.2052	9.584
26.470	113.31	93.8461	17.2052	9.578
26.578	113.31	93.8461	17.2052	9.574
26.687	113.31	93.8460	17.2052	9.568
26.795	113.31	93.8459	17.2051	9.564
26.903	113.31	93.8458	17.2051	9.559
27.012	113.31	93.8458	17.2051	9.554
27.120	113.31	93.8458	17.2051	9.549
27.228	113.31	93.8457	17.2051	9.544
27.337	113.31	93.8456	17.2051	9.539
27.445	113.31	93.8454	17.2051	9.536
27.553	113.31	93.8454	17.2050	9.532
27.662	113.30	93.8453	17.2050	9.525
27.770	113.30	93.8452	17.2050	9.520
27.878	113.30	93.8451	17.2050	9.516
27.987	113.30	93.8450	17.2050	9.511
28.095	113.30	93.8450	17.2050	9.506
28.203	113.30	93.8449	17.2049	9.499
28.312	113.30	93.8448	17.2049	9.494
28.420	113.30	93.8447	17.2049	9.489
28.528	113.30	93.8445	17.2049	9.483
28.637	113.30	93.8444	17.2049	9.479
28.745	113.30	93.8443	17.2048	9.476
28.853	113.30	93.8443	17.2048	9.473
28.962	113.30	93.8442	17.2048	9.469
29.070	113.30	93.8441	17.2048	9.464
29.178	113.30	93.8440	17.2048	9.457
29.287	113.29	93.8439	17.2048	9.452
29.395	113.29	93.8439	17.2048	9.448
29.503	113.29	93.8439	17.2048	9.443
29.612	113.29	93.8438	17.2047	9.437
29.720	113.29	93.8437	17.2047	9.432
29.828	113.29	93.8435	17.2047	9.429
29.937	113.29	93.8435	17.2047	9.426
30.045	113.29	93.8435	17.2047	9.422
30.153	113.29	93.8434	17.2047	9.418
30.262	113.29	93.8433	17.2047	9.414
30.370	113.29	93.8432	17.2046	9.412
30.478	113.29	93.8431	17.2046	9.407
30.587	113.28	93.8431	17.2046	9.401
30.695	113.28	93.8431	17.2046	9.395
30.803	113.28	93.8430	17.2046	9.391
30.912	113.28	93.8429	17.2046	9.386
31.020	113.28	93.8428	17.2046	9.383
31.128	113.28	93.8427	17.2046	9.379
31.237	113.28	93.8427	17.2046	9.377
31.345	113.28	93.8426	17.2045	9.374
31.453	113.28	93.8425	17.2045	9.368
31.562	113.28	93.8425	17.2045	9.365
31.670	113.28	93.8424	17.2045	9.361
31.778	113.28	93.8424	17.2045	9.356
31.887	113.28	93.8423	17.2045	9.351
31.995	113.28	93.8422	17.2045	9.347
[...]
204.337	948.28	-0.3957	-0.0725	33.596
204.453	948.38	-0.3958	-0.0726	34.934
204.570	948.47	-0.3959	-0.0726	36.185
204.687	948.56	-0.3959	-0.0726	37.339
204.803	948.65	-0.3961	-0.0726	38.396
204.920	948.73	-0.3962	-0.0726	39.373
205.037	948.80	-0.3964	-0.0727	40.249
205.153	948.87	-0.3965	-0.0727	41.079
205.270	948.94	-0.3967	-0.0727	41.842
205.387	949.00	-0.3969	-0.0728	42.546
205.503	949.06	-0.3971	-0.0728	43.190
205.620	949.11	-0.3974	-0.0729	43.796
205.737	949.16	-0.3976	-0.0729	44.353
205.853	949.21	-0.3978	-0.0729	44.850
205.970	949.26	-0.3980	-0.0730	45.309
206.087	949.30	-0.3983	-0.0730	45.730
206.203	949.34	-0.3986	-0.0731	46.105
206.320	949.38	-0.3987	-0.0731	46.454
206.437	949.42	-0.3989	-0.0731	46.773
206.553	949.45	-0.3992	-0.0732	47.079
206.670	949.49	-0.3995	-0.0732	47.358
206.787	949.52	-0.3997	-0.0733	47.629
206.903	949.54	-0.4000	-0.0733	47.849
207.020	949.57	-0.4002	-0.0734	48.058
207.137	949.60	-0.4004	-0.0734	48.236
207.253	949.62	-0.4004	-0.0734	48.380
207.370	949.65	-0.3974	-0.0729	48.539
207.487	949.67	-0.3951	-0.0724	48.684
207.603	949.69	-0.3942	-0.0723	48.816
207.720	949.71	-0.3941	-0.0723	48.932
207.837	949.73	-0.3943	-0.0723	49.044
207.953	949.74	-0.3947	-0.0724	49.148
208.070	949.76	-0.3949	-0.0724	49.233
208.187	949.77	-0.3951	-0.0724	49.332
208.303	949.79	-0.3954	-0.0725	49.391
208.420	949.81	-0.3956	-0.0725	49.444
208.537	949.82	-0.3959	-0.0726	49.500
208.653	949.83	-0.3961	-0.0726	49.559
208.770	949.84	-0.3963	-0.0727	49.618
208.887	949.85	-0.3965	-0.0727	49.668
209.003	949.86	-0.3967	-0.0727	49.698
209.120	949.87	-0.3968	-0.0728	49.725
209.237	949.88	-0.3970	-0.0728	49.744
209.353	949.89	-0.3972	-0.0728	49.759
209.470	949.90	-0.3975	-0.0729	49.783
209.587	949.91	-0.3979	-0.0729	49.806
209.703	949.91	-0.3982	-0.0730	49.838
209.820	949.92	-0.3985	-0.0731	49.854
209.937	949.93	-0.3988	-0.0731	49.862
210.053	949.94	-0.3992	-0.0732	49.881
210.170	949.94	-0.3995	-0.0732	49.889
210.287	949.95	-0.3998	-0.0733	49.897
210.403	949.95	-0.4001	-0.0734	49.900
210.520	949.96	-0.4005	-0.0734	49.894
210.637	949.96	-0.4009	-0.0735	49.887
210.753	949.97	-0.4012	-0.0735	49.886
210.870	949.97	-0.4014	-0.0736	49.892
210.987	949.98	-0.4017	-0.0736	49.893
211.103	949.98	-0.4019	-0.0737	49.889
211.220	949.98	-0.4023	-0.0737	49.877
211.337	949.99	-0.4026	-0.0738	49.869
211.453	949.99	-0.4029	-0.0739	49.863
211.570	949.99	-0.4032	-0.0739	49.848
211.687	949.99	-0.4034	-0.0740	49.835
211.803	950.00	-0.4036	-0.0740	49.823
211.920	950.00	-0.4038	-0.0740	49.809
212.037	950.00	-0.4040	-0.0741	49.805
212.153	950.00	-0.4042	-0.0741	49.796
212.270	950.01	-0.4045	-0.0742	49.787
212.387	950.01	-0.4048	-0.0742	49.776
212.503	950.01	-0.4051	-0.0743	49.759
212.620	950.01	-0.4053	-0.0743	49.756
212.737	950.01	-0.4055	-0.0744	49.757
212.853	950.01	-0.4059	-0.0744	49.750
212.970	950.01	-0.4062	-0.0745	49.736
213.087	950.01	-0.4065	-0.0745	49.714
213.203	950.02	-0.4068	-0.0746	49.697
213.320	950.02	-0.4071	-0.0746	49.681
213.437	950.02	-0.4073	-0.0747	49.669
213.553	950.02	-0.4075	-0.0747	49.664
213.670	950.02	-0.4078	-0.0748	49.656
213.787	950.02	-0.4080	-0.0748	49.647
213.903	950.02	-0.4082	-0.0748	49.636
214.020	950.02	-0.4085	-0.0749	49.625
214.137	950.02	-0.4088	-0.0749	49.616
214.253	950.02	-0.4091	-0.0750	49.606
214.370	950.02	-0.4093	-0.0750	49.597
214.487	950.02	-0.4096	-0.0751	49.592
214.603	950.02	-0.4101	-0.0752	49.590
214.720	950.02	-0.4103	-0.0752	49.581
214.837	950.02	-0.4106	-0.0753	49.570
214.953	950.02	-0.4109	-0.0753	49.558
215.070	950.02	-0.4112	-0.0754	49.556
215.187	950.02	-0.4116	-0.0755	49.554
215.303	950.03	-0.4119	-0.0755	49.551
215.420	950.03	-0.4122	-0.0756	49.551
215.537	950.02	-0.4125	-0.0756	49.538
215.653	950.02	-0.4126	-0.0756	49.535
215.770	950.02	-0.4128	-0.0757	49.533
215.887	950.02	-0.4130	-0.0757	49.529
216.003	950.03	-0.4132	-0.0757	49.524
216.120	950.03	-0.4134	-0.0758	49.520
216.237	950.02	-0.4136	-0.0758	49.519
216.353	950.03	-0.4139	-0.0759	49.512
216.470	950.03	-0.4142	-0.0759	49.497
216.587	950.03	-0.4144	-0.0760	49.488
216.703	950.03	-0.4147	-0.0760	49.488
216.820	950.03	-0.4149	-0.0761	49.485
216.937	950.03	-0.4152	-0.0761	49.485
217.053	950.03	-0.4155	-0.0762	49.489
217.170	950.02	-0.4157	-0.0762	49.492
217.287	950.03	-0.4159	-0.0763	49.486
217.403	950.03	-0.4161	-0.0763	49.484
217.520	950.02	-0.4164	-0.0763	49.484
217.637	950.03	-0.4167	-0.0764	49.486
217.753	950.02	-0.4169	-0.0764	49.484
217.870	950.02	-0.4172	-0.0765	49.480
217.987	950.02	-0.4175	-0.0765	49.479
218.103	950.02	-0.4177	-0.0766	49.476
218.220	950.02	-0.4180	-0.0766	49.475
218.337	950.02	-0.4183	-0.0767	49.476
218.453	950.02	-0.4186	-0.0767	49.474
218.570	950.02	-0.4188	-0.0768	49.467
218.687	950.02	-0.4191	-0.0768	49.474
218.803	950.02	-0.4193	-0.0769	49.485
218.920	950.02	-0.4196	-0.0769	49.492
219.037	950.02	-0.4199	-0.0770	49.493
219.153	950.02	-0.4201	-0.0770	49.494
219.270	950.02	-0.4202	-0.0770	49.497
219.387	950.02	-0.4204	-0.0771	49.497
219.503	950.02	-0.4206	-0.0771	49.501
219.620	950.02	-0.4209	-0.0772	49.518
219.737	950.02	-0.4211	-0.0772	49.526
219.853	950.02	-0.4213	-0.0772	49.526
219.970	950.02	-0.4215	-0.0773	49.525
220.087	950.02	-0.4218	-0.0773	49.523
220.203	950.02	-0.4220	-0.0774	49.522
220.320	950.02	-0.4223	-0.0774	49.529
220.437	950.02	-0.4225	-0.0775	49.543
220.553	950.02	-0.4227	-0.0775	49.545
220.670	950.02	-0.4229	-0.0775	49.549
220.787	950.02	-0.4232	-0.0776	49.554
220.903	950.02	-0.4235	-0.0776	49.559
221.020	950.02	-0.4237	-0.0777	49.570
221.137	950.02	-0.4239	-0.0777	49.576
221.253	950.02	-0.4242	-0.0778	49.577
221.370	950.02	-0.4245	-0.0778	49.583
221.487	950.02	-0.4247	-0.0779	49.594
221.603	950.02	-0.4250	-0.0779	49.602
221.720	950.02	-0.4253	-0.0780	49.609
221.837	950.02	-0.4255	-0.0780	49.612
221.953	950.02	-0.4257	-0.0780	49.621
222.070	950.02	-0.4258	-0.0781	49.615
222.187	950.02	-0.4261	-0.0781	49.613
222.303	950.02	-0.4263	-0.0782	49.616
222.420	950.02	-0.4265	-0.0782	49.617
222.537	950.02	-0.4268	-0.0782	49.618
222.653	950.02	-0.4270	-0.0783	49.617
222.770	950.02	-0.4272	-0.0783	49.614
222.887	950.02	-0.4274	-0.0784	49.618
223.003	950.02	-0.4276	-0.0784	49.624
223.120	950.02	-0.4279	-0.0785	49.626
223.237	950.02	-0.4282	-0.0785	49.626
223.353	950.02	-0.4284	-0.0785	49.630
223.470	950.02	-0.4285	-0.0786	49.633
223.587	950.02	-0.4287	-0.0786	49.630
223.703	950.02	-0.4289	-0.0786	49.630
223.820	950.02	-0.4292	-0.0787	49.628
223.937	950.02	-0.4295	-0.0787	49.628
224.053	950.02	-0.4297	-0.0788	49.627
224.170	950.02	-0.4300	-0.0788	49.635
224.287	950.02	-0.4302	-0.0789	49.647
224.403	950.02	-0.4304	-0.0789	49.657
224.520	950.02	-0.4307	-0.0790	49.661
224.637	950.02	-0.4309	-0.0790	49.671
224.753	950.02	-0.4312	-0.0791	49.674
224.870	950.02	-0.4314	-0.0791	49.679
224.987	950.02	-0.4317	-0.0791	49.681
225.103	950.02	-0.4319	-0.0792	49.684
225.220	950.02	-0.4321	-0.0792	49.686
225.337	950.02	-0.4323	-0.0793	49.678
225.453	950.02	-0.4326	-0.0793	49.682
225.570	950.02	-0.4328	-0.0794	49.690
225.687	950.02	-0.4331	-0.0794	49.699
225.803	950.02	-0.4333	-0.0794	49.704
225.920	950.02	-0.4335	-0.0795	49.708
226.037	950.02	-0.4338	-0.0795	49.717
226.153	950.02	-0.4340	-0.0796	49.724
226.270	950.02	-0.4343	-0.0796	49.740
226.387	950.02	-0.4346	-0.0797	49.748
226.503	950.02	-0.4348	-0.0797	49.749
226.620	950.02	-0.4351	-0.0798	49.742
226.737	950.02	-0.4354	-0.0798	49.742
226.853	950.02	-0.4356	-0.0799	49.749
226.970	950.02	-0.4358	-0.0799	49.754
227.087	950.02	-0.4361	-0.0800	49.763
227.203	950.02	-0.4364	-0.0800	49.774
227.320	950.02	-0.4367	-0.0801	49.783
227.437	950.02	-0.4368	-0.0801	49.792
227.553	950.02	-0.4370	-0.0801	49.798
227.670	950.02	-0.4372	-0.0801	49.805
227.787	950.02	-0.4374	-0.0802	49.812
227.903	950.02	-0.4376	-0.0802	49.818
228.020	950.02	-0.4379	-0.0803	49.826
228.137	950.02	-0.4381	-0.0803	49.830
228.253	950.02	-0.4385	-0.0804	49.833
228.370	950.02	-0.4388	-0.0804	49.846
228.487	950.02	-0.4390	-0.0805	49.857
228.603	950.02	-0.4392	-0.0805	49.866
228.720	950.02	-0.4394	-0.0806	49.865
228.837	950.02	-0.4397	-0.0806	49.866
228.953	950.02	-0.4399	-0.0807	49.875
229.070	950.02	-0.4401	-0.0807	49.886
229.187	950.02	-0.4402	-0.0807	49.888
229.303	950.02	-0.4405	-0.0807	49.889
229.420	950.02	-0.4406	-0.0808	49.892
229.537	950.02	-0.4408	-0.0808	49.898
229.653	950.02	-0.4410	-0.0809	49.904
229.770	950.02	-0.4413	-0.0809	49.907
229.887	950.02	-0.4416	-0.0810	49.916
230.003	950.02	-0.4418	-0.0810	49.926
230.120	950.02	-0.4420	-0.0810	49.934
230.237	950.02	-0.4423	-0.0811	49.948
230.353	950.02	-0.4425	-0.0811	49.960
230.470	950.02	-0.4427	-0.0812	49.964
230.587	950.02	-0.4429	-0.0812	49.966
230.703		-0.4432	-0.0812
230.712		-0.4432	-0.0813